Data from oakcork_FLMT105791__5__17-26-40-067.txt Node

Date: Mon Mar 20 17:26:40 GMT 2023
User: antho
Spectrometer: FLMT10579
Trigger mode: 0
Integration Time (sec): 1.000000E-1
Scans to average: 10
Electric dark correction enabled: true
Nonlinearity correction enabled: false
Boxcar width: 0
XAxis mode: Wavelengths
Number of Pixels in Spectrum: 3648
>>>>>Begin Spectral Data<<<<<
345.248	-149.75
345.464	-149.75
345.681	-149.75
345.898	-175.33
346.114	-142.39
346.331	-30.79
346.548	40.32
346.764	-24.98
346.981	4.86
347.197	-28.27
347.414	27.14
347.631	-20.52
347.847	60.66
348.064	-0.18
348.28	22.1
348.497	-59.85
348.713	9.51
348.93	42.06
349.146	14.74
349.363	-13.74
349.579	7.38
349.796	23.07
350.012	-35.63
350.229	30.82
350.445	-12
350.661	-24.2
350.878	25.98
351.094	18.42
351.311	15.13
351.527	30.43
351.743	-18.39
351.96	21.91
352.176	35.28
352.392	24.43
352.609	54.65
352.825	-11.22
353.041	6.02
353.257	-1.73
353.474	11.83
353.69	29.08
353.906	-6.18
354.122	-23.81
354.339	50
354.555	6.99
354.771	-10.06
354.987	56.2
355.203	70.54
355.42	-13.93
355.636	6.22
355.852	-21.3
356.068	-6.57
356.284	-27.5
356.5	76.55
356.716	30.24
356.932	-2.31
357.148	10.87
357.364	-11.61
357.58	57.95
357.796	32.57
358.012	39.54
358.228	18.62
358.444	-56.56
358.66	21.33
358.876	25.01
359.092	0.6
359.308	9.12
359.524	31.79
359.74	0.21
359.956	-13.35
360.172	19.2
360.388	70.35
360.604	-0.57
360.819	99.02
361.035	47.1
361.251	42.64
361.467	4.08
361.683	43.22
361.898	24.04
362.114	49.03
362.33	32.95
362.546	40.9
362.762	21.52
362.977	32.18
363.193	-21.88
363.409	56.01
363.624	-4.63
363.84	0.02
364.056	-4.25
364.271	56.59
364.487	49.03
364.703	2.53
364.918	-31.37
365.134	13.38
365.35	5.63
365.565	123.82
365.781	15.71
365.996	31.79
366.212	87.01
366.427	69.57
366.643	-12.96
366.858	9.12
367.074	-18.2
367.289	82.16
367.505	133.51
367.72	-33.11
367.936	2.92
368.151	31.98
368.367	50.97
368.582	29.47
368.798	28.69
369.013	59.88
369.228	31.02
369.444	38.77
369.659	63.37
369.874	51.75
370.09	73.06
370.305	-31.76
370.52	3.7
370.736	59.3
370.951	37.41
371.166	83.91
371.381	55.04
371.597	57.95
371.812	-16.26
372.027	-1.53
372.242	25.78
372.458	88.75
372.673	22.49
372.888	30.82
373.103	45.16
373.318	104.64
373.533	52.33
373.749	45.16
373.964	-19.16
374.179	70.35
374.394	44
374.609	68.6
374.824	-12.38
375.039	88.36
375.254	-16.45
375.469	70.54
375.684	41.87
375.899	62.98
376.114	23.07
376.329	38.18
376.544	72.09
376.759	49.03
376.974	18.42
377.189	11.06
377.404	19.58
377.619	67.25
377.834	-33.31
378.049	-16.84
378.264	0.79
378.478	60.66
378.693	1.95
378.908	41.09
379.123	4.86
379.338	84.1
379.553	20.55
379.767	63.57
379.982	62.79
380.197	52.13
380.412	36.63
380.626	60.27
380.841	95.34
381.056	43.8
381.271	112.78
381.485	-17.61
381.7	6.41
381.915	63.95
382.129	4.08
382.344	43.22
382.559	25.98
382.773	60.66
382.988	-17.03
383.202	41.87
383.417	3.12
383.632	119.95
383.846	51.36
384.061	11.83
384.275	36.63
384.49	44.97
384.704	71.12
384.919	75.19
385.133	32.95
385.348	62.4
385.562	7.38
385.777	66.28
385.991	77.13
386.206	22.88
386.42	23.65
386.634	91.27
386.849	52.13
387.063	50.97
387.277	4.47
387.492	21.91
387.706	-4.25
387.92	-3.28
388.135	63.57
388.349	70.15
388.563	22.88
388.778	53.49
388.992	67.25
389.206	60.85
389.42	124.6
389.635	61.24
389.849	64.15
390.063	78.29
390.277	45.93
390.491	112.58
390.706	57.56
390.92	95.53
391.134	87.01
391.348	83.33
391.562	-9.67
391.776	61.63
391.99	41.67
392.205	87.78
392.419	15.9
392.633	45.55
392.847	93.4
393.061	14.93
393.275	99.99
393.489	33.15
393.703	39.15
393.917	84.3
394.131	48.07
394.345	53.88
394.559	92.63
394.773	50.39
394.986	70.15
395.2	61.05
395.414	97.66
395.628	40.12
395.842	52.91
396.056	43.42
396.27	23.65
396.484	44.19
396.697	67.05
396.911	92.24
397.125	75.38
397.339	75.77
397.553	59.69
397.766	118.2
397.98	122.08
398.194	96.5
398.408	62.4
398.621	66.67
398.835	120.91
399.049	105.22
399.262	122.08
399.476	93.98
399.69	100.96
399.903	145.71
400.117	111.81
400.331	116.26
400.544	48.26
400.758	196.28
400.971	131.76
401.185	102.7
401.398	46.71
401.612	145.52
401.826	105.8
402.039	113.55
402.253	80.81
402.466	114.71
402.68	119.36
402.893	116.46
403.106	150.17
403.32	124.6
403.533	116.85
403.747	142.61
403.96	110.65
404.174	137.58
404.387	78.48
404.6	106
404.814	137
405.027	120.53
405.24	88.36
405.454	101.35
405.667	164.9
405.88	76.74
406.094	112.2
406.307	150.36
406.52	118.78
406.733	57.37
406.947	55.23
407.16	176.91
407.373	130.8
407.586	70.73
407.799	90.69
408.012	123.63
408.226	128.86
408.439	145.71
408.652	89.33
408.865	132.15
409.078	171.68
409.291	138.93
409.504	93.01
409.717	151.14
409.93	130.99
410.143	102.51
410.357	62.79
410.57	76.16
410.783	131.96
410.996	122.85
411.209	120.91
411.421	151.14
411.634	102.7
411.847	105.61
412.06	153.85
412.273	124.21
412.486	114.33
412.699	228.64
412.912	137.38
413.125	145.91
413.338	138.74
413.55	164.7
413.763	111.42
413.976	143.58
414.189	108.32
414.402	143.2
414.615	187.56
414.827	118.2
415.04	150.56
415.253	143.78
415.466	154.05
415.678	197.83
415.891	139.9
416.104	153.85
416.316	161.8
416.529	134.48
416.742	161.8
416.954	195.7
417.167	149.2
417.38	154.82
417.592	163.35
417.805	122.85
418.017	84.68
418.23	164.7
418.442	124.98
418.655	140.29
418.868	175.94
419.08	198.61
419.293	163.15
419.505	156.95
419.718	152.11
419.93	166.83
420.142	149.98
420.355	181.17
420.567	178.84
420.78	174.78
420.992	131.96
421.205	224.96
421.417	124.79
421.629	119.75
421.842	129.25
422.054	125.37
422.266	162.38
422.479	178.84
422.691	139.71
422.903	180.59
423.115	139.51
423.328	160.83
423.54	173.81
423.752	157.15
423.964	131.57
424.177	185.04
424.389	149.4
424.601	268.94
424.813	164.12
425.025	188.53
425.238	195.51
425.45	167.22
425.662	174.97
425.874	459.78
426.086	155.6
426.298	192.21
426.51	167.99
426.722	153.08
426.934	162.96
427.146	218.76
427.358	145.52
427.57	215.27
427.782	171.29
427.994	160.83
428.206	174.39
428.418	125.18
428.63	182.53
428.842	192.02
429.054	197.06
429.266	200.74
429.478	111.81
429.69	167.61
429.902	113.16
430.114	192.02
430.325	200.93
430.537	107.55
430.749	169.93
430.961	87.59
431.173	147.85
431.384	163.54
431.596	91.08
431.808	158.7
432.02	196.09
432.231	194.34
432.443	230.96
432.655	186.01
432.867	177.1
433.078	184.27
433.29	260.22
433.502	247.63
433.713	196.48
433.925	212.94
434.136	221.47
434.348	170.32
434.56	151.72
434.771	275.33
434.983	161.02
435.194	189.89
435.406	202.09
435.617	247.24
435.829	264.09
436.04	261.57
436.252	261.77
436.463	265.64
436.675	244.33
436.886	248.79
437.098	239.88
437.309	295.48
437.521	228.25
437.732	232.51
437.943	236
438.155	255.18
438.366	176.71
438.578	269.91
438.789	243.75
439	244.91
439.211	229.22
439.423	248.59
439.634	256.73
439.845	253.44
440.057	255.18
440.268	291.8
440.479	214.69
440.69	250.73
440.902	243.75
441.113	255.57
441.324	196.86
441.535	268.94
441.746	325.12
441.957	234.64
442.168	241.62
442.38	271.84
442.591	319.7
442.802	217.4
443.013	254.41
443.224	304.2
443.435	230.96
443.646	238.91
443.857	257.89
444.068	251.11
444.279	225.15
444.49	323.57
444.701	287.34
444.912	363.87
445.123	332.29
445.334	298.77
445.545	300.91
445.756	277.46
445.967	243.17
446.178	286.18
446.388	296.06
446.599	303.81
446.81	318.54
447.021	263.9
447.232	328.61
447.443	332.49
447.653	260.99
447.864	348.57
448.075	305.56
448.286	325.71
448.496	308.85
448.707	331.52
448.918	303.04
449.129	380.54
449.339	265.45
449.55	322.22
449.761	290.64
449.971	359.22
450.182	319.7
450.393	329.39
450.603	297.61
450.814	379.95
451.024	333.07
451.235	354.96
451.446	371.62
451.656	350.5
451.867	294.32
452.077	343.92
452.288	374.34
452.498	386.35
452.709	310.4
452.919	352.83
453.13	295.67
453.34	363.68
453.55	255.37
453.761	343.14
453.971	338.3
454.182	354.57
454.392	347.79
454.602	394.29
454.813	351.86
455.023	377.63
455.233	306.33
455.444	351.09
455.654	268.16
455.864	305.94
456.075	327.84
456.285	317.96
456.495	310.4
456.705	356.9
456.916	366.59
457.126	422.39
457.336	365.04
457.546	282.5
457.756	321.83
457.967	374.72
458.177	348.76
458.387	362.32
458.597	323.57
458.807	335.39
459.017	359.42
459.227	326.29
459.437	323.38
459.647	398.94
459.857	387.32
460.068	338.88
460.278	414.64
460.488	359.03
460.698	420.25
460.908	361.55
461.117	334.81
461.327	320.67
461.537	359.22
461.747	383.05
461.957	382.28
462.167	460.55
462.377	427.04
462.587	388.87
462.797	410.57
463.007	395.65
463.216	428.39
463.426	430.52
463.636	403.4
463.846	343.14
464.056	365.62
464.265	422.58
464.475	347.21
464.685	360.58
464.895	415.8
465.104	369.88
465.314	403.98
465.524	361.74
465.733	356.9
465.943	450.87
466.153	455.13
466.362	440.6
466.572	395.84
466.782	381.31
466.991	405.72
467.201	453.97
467.41	358.25
467.62	408.24
467.829	380.73
468.039	423.55
468.249	396.62
468.458	397
468.668	428.97
468.877	448.73
469.086	457.65
469.296	472.18
469.505	399.91
469.715	457.26
469.924	435.37
470.134	487.87
470.343	499.11
470.552	407.08
470.762	445.44
470.971	398.55
471.18	443.12
471.39	437.88
471.599	419.48
471.808	462.88
472.018	428.97
472.227	485.93
472.436	526.81
472.645	467.33
472.855	436.14
473.064	525.65
473.273	465.59
473.482	485.16
473.691	499.88
473.901	476.63
474.11	459.39
474.319	605.09
474.528	476.05
474.737	525.65
474.946	488.45
475.155	502.4
475.364	547.93
475.573	527.01
475.783	541.54
475.992	515.77
476.201	541.93
476.41	499.3
476.619	488.45
476.828	527.01
477.037	509.38
477.245	507.44
477.454	545.22
477.663	521.78
477.872	504.92
478.081	587.85
478.29	502.21
478.499	630.08
478.708	558.4
478.917	612.26
479.125	555.3
479.334	563.63
479.543	578.35
479.752	592.69
479.961	570.02
480.169	619.23
480.378	590.36
480.587	682.59
480.796	604.12
481.004	630.66
481.213	618.84
481.422	632.02
481.63	612.06
481.839	635.31
482.048	665.54
482.256	623.3
482.465	652.94
482.674	680.65
482.882	668.06
483.091	708.55
483.299	645.78
483.508	658.95
483.716	644.61
483.925	652.94
484.134	664.18
484.342	666.51
484.551	677.36
484.759	674.64
484.967	689.56
485.176	713.01
485.384	709.71
485.593	719.79
485.801	687.82
486.01	710.87
486.218	655.08
486.426	587.07
486.635	567.7
486.843	613.23
487.051	627.76
487.26	633.76
487.468	656.82
487.676	694.79
487.885	649.26
488.093	674.64
488.301	692.66
488.509	695.18
488.717	730.83
488.926	725.02
489.134	693.05
489.342	747.3
489.55	649.07
489.758	731.41
489.967	705.26
490.175	801.16
490.383	713.97
490.591	829.06
490.799	718.62
491.007	777.52
491.215	794.38
491.423	751.56
491.631	778.3
491.839	738.58
492.047	784.3
492.255	701.96
492.463	691.11
492.671	740.32
492.879	804.07
493.087	767.64
493.295	769.77
493.503	791.28
493.711	804.84
493.919	811.43
494.127	815.5
494.334	811.62
494.542	778.11
494.75	804.45
494.958	790.7
495.166	824.99
495.374	822.09
495.581	834.1
495.789	829.64
495.997	871.68
496.205	812.01
496.412	833.71
496.62	808.33
496.828	832.16
497.035	826.54
497.243	870.72
497.451	836.62
497.658	840.49
497.866	833.71
498.074	887.18
498.281	832.55
498.489	902.1
498.696	824.22
498.904	812.98
499.112	834.1
499.319	893.97
499.527	831.39
499.734	881.76
499.942	802.52
500.149	813.95
500.357	862.77
500.564	808.52
500.771	855.41
500.979	813.37
501.186	800.58
501.394	836.42
501.601	847.85
501.808	836.04
502.016	859.48
502.223	814.34
502.43	849.4
502.638	828.48
502.845	811.82
503.052	902.49
503.26	834.29
503.467	917.22
503.674	855.99
503.881	902.68
504.089	950.15
504.296	894.16
504.503	844.95
504.71	886.41
504.917	806.97
505.125	850.18
505.332	895.71
505.539	916.05
505.746	946.28
505.953	932.52
506.16	895.32
506.367	981.15
506.574	985.41
506.781	938.92
506.988	892.42
507.195	913.15
507.402	918.77
507.609	961.58
507.816	862.39
508.023	897.26
508.23	895.71
508.437	862.19
508.644	936.4
508.851	966.04
509.058	964.68
509.265	941.63
509.472	980.57
509.679	1011.76
509.885	939.88
510.092	951.7
510.299	953.83
510.506	934.07
510.713	965.65
510.92	958.87
511.126	998.2
511.333	1014.09
511.54	992.58
511.746	1040.44
511.953	1006.15
512.16	1067.56
512.367	965.46
512.573	1001.69
512.78	950.73
512.987	1009.05
513.193	983.67
513.4	935.04
513.606	970.69
513.813	998.98
514.02	987.35
514.226	1073.38
514.433	1052.84
514.639	961
514.846	995.88
515.052	993.36
515.259	999.56
515.465	996.07
515.672	1019.9
515.878	1058.84
516.085	1034.05
516.291	1042.57
516.497	993.55
516.704	998.59
516.91	919.93
517.117	938.14
517.323	873.04
517.529	925.35
517.736	912.57
517.942	919.15
518.148	929.03
518.354	933.1
518.561	980.57
518.767	955.77
518.973	982.51
519.179	1048.38
519.386	1003.82
519.592	998.2
519.798	962.94
520.004	1110.58
520.21	1016.8
520.417	1093.33
520.623	1074.73
520.829	1114.06
521.035	1075.7
521.241	1086.55
521.447	1095.08
521.653	1157.66
521.859	1078.99
522.065	1125.49
522.271	1179.74
522.477	1128.98
522.683	1159.4
522.889	1142.93
523.095	1163.27
523.301	1151.84
523.507	1091.59
523.713	1160.76
523.919	1124.72
524.125	1173.35
524.331	1129.95
524.537	1231.86
524.742	1219.65
524.948	1224.89
525.154	1229.15
525.36	1309.55
525.566	1214.42
525.772	1236.51
525.977	1180.52
526.183	1211.71
526.389	1260.92
526.595	1172.19
526.8	1185.94
527.006	1131.31
527.212	1107.48
527.417	1106.51
527.623	1088.1
527.829	1159.01
528.034	1194.27
528.24	1195.05
528.446	1158.82
528.651	1241.74
528.857	1229.15
529.062	1301.22
529.268	1241.94
529.473	1251.43
529.679	1256.85
529.884	1315.37
530.09	1275.07
530.295	1333.19
530.501	1323.12
530.706	1320.4
530.912	1290.95
531.117	1295.02
531.323	1303.93
531.528	1365.16
531.733	1378.92
531.939	1332.42
532.144	1370.2
532.35	1332.03
532.555	1351.98
532.76	1340.55
532.966	1335.32
533.171	1334.16
533.376	1308.78
533.581	1276.81
533.787	1288.44
533.992	1331.06
534.197	1352.76
534.402	1349.27
534.607	1356.05
534.813	1433.94
535.018	1342.1
535.223	1316.92
535.428	1374.65
535.633	1403.91
535.838	1431.81
536.043	1386.47
536.249	1471.72
536.454	1410.88
536.659	1389.77
536.864	1391.7
537.069	1367.87
537.274	1421.35
537.479	1388.8
537.684	1404.1
537.889	1385.89
538.094	1495.55
538.299	1392.86
538.504	1433.75
538.708	1465.33
538.913	1460.29
539.118	1400.03
539.323	1454.28
539.528	1373.3
539.733	1396.74
539.938	1415.73
540.142	1457
540.347	1398.48
540.552	1395
540.757	1380.08
540.962	1390.93
541.166	1374.07
541.371	1336.87
541.576	1398.68
541.781	1276.42
541.985	1407.78
542.19	1403.91
542.395	1479.86
542.599	1500.78
542.804	1425.8
543.008	1481.02
543.213	1416.5
543.418	1383.95
543.622	1461.45
543.827	1398.1
544.031	1486.83
544.236	1496.91
544.44	1457
544.645	1538.56
544.849	1431.03
545.054	1489.16
545.258	1572.47
545.463	1520.54
545.667	1432.39
545.872	1484.89
546.076	1507.95
546.281	1475.79
546.485	1456.8
546.689	1503.49
546.894	1558.33
547.098	1491.68
547.302	1470.56
547.507	1466.1
547.711	1500.39
547.915	1560.26
548.119	1445.76
548.324	1476.76
548.528	1533.33
548.732	1472.5
548.936	1545.54
549.141	1519.38
549.345	1476.56
549.549	1504.46
549.753	1519.38
549.957	1540.5
550.161	1579.83
550.366	1501.36
550.57	1482.57
550.774	1471.53
550.978	1476.76
551.182	1486.83
551.386	1452.15
551.59	1479.28
551.794	1485.48
551.998	1509.11
552.202	1481.02
552.406	1468.23
552.61	1508.14
552.814	1526.94
553.018	1559.68
553.222	1468.81
553.426	1479.86
553.63	1557.94
553.833	1503.88
554.037	1455.25
554.241	1562.98
554.445	1514.15
554.649	1497.29
554.853	1455.06
555.056	1554.64
555.26	1538.37
555.464	1486.44
555.668	1556
555.871	1547.09
556.075	1569.37
556.279	1494.97
556.483	1463.78
556.686	1519.77
556.89	1481.79
557.094	1546.12
557.297	1452.35
557.501	1515.7
557.704	1411.66
557.908	1505.82
558.112	1453.12
558.315	1525.58
558.519	1451.57
558.722	1472.3
558.926	1424.45
559.129	1370.97
559.333	1388.02
559.536	1379.11
559.74	1347.53
559.943	1378.92
560.147	1370.58
560.35	1419.41
560.553	1413.01
560.757	1356.63
560.96	1483.93
561.164	1373.1
561.367	1473.85
561.57	1429.48
561.774	1445.56
561.977	1421.35
562.18	1373.88
562.384	1512.21
562.587	1407.78
562.79	1393.64
562.993	1391.31
563.197	1459.32
563.4	1455.64
563.603	1429.68
563.806	1516.28
564.009	1390.54
564.212	1422.12
564.416	1347.33
564.619	1401.39
564.822	1322.15
565.025	1415.34
565.228	1409.53
565.431	1386.08
565.634	1300.64
565.837	1360.51
566.04	1330.67
566.243	1320.4
566.446	1244.26
566.649	1352.76
566.852	1276.62
567.055	1316.92
567.258	1360.7
567.461	1378.92
567.664	1418.44
567.867	1294.44
568.07	1328.15
568.273	1343.65
568.475	1388.6
568.678	1334.16
568.881	1263.83
569.084	1329.32
569.287	1213.07
569.489	1245.81
569.692	1289.4
569.895	1310.72
570.098	1209.97
570.3	1209.77
570.503	1147.97
570.706	1255.69
570.909	1185.17
571.111	1174.32
571.314	1163.47
571.516	1207.06
571.719	1230.31
571.922	1205.32
572.124	1192.92
572.327	1210.74
572.529	1140.61
572.732	1165.41
572.935	1218.49
573.137	1275.65
573.34	1183.62
573.542	1244.45
573.745	1204.35
573.947	1216.36
574.15	1184.01
574.352	1167.34
574.554	1264.41
574.757	1122.98
574.959	1167.73
575.162	1168.89
575.364	1141.96
575.566	1256.08
575.769	1110.77
575.971	1182.26
576.173	1093.53
576.376	1141.38
576.578	1171.02
576.78	1215.59
576.982	1058.07
577.185	1142.16
577.387	1105.34
577.589	1071.83
577.791	1170.06
577.993	1163.47
578.196	1116.58
578.398	1154.36
578.6	1170.83
578.802	1103.99
579.004	1079.38
579.206	1103.6
579.408	1118.91
579.61	1103.21
579.812	1127.04
580.014	1093.33
580.216	1107.28
580.418	1125.49
580.62	1102.83
580.822	1050.71
581.024	1118.52
581.226	1146.42
581.428	1090.62
581.63	1141.57
581.832	1118.33
582.034	1156.69
582.236	1100.69
582.438	1162.31
582.64	1183.42
582.841	1185.75
583.043	1207.64
583.245	1124.53
583.447	1140.8
583.649	1139.64
583.85	1174.9
584.052	1170.64
584.254	1102.44
584.456	1173.54
584.657	1086.16
584.859	1127.82
585.061	1111.35
585.262	1133.63
585.464	1077.83
585.666	1165.21
585.867	1098.76
586.069	1144.29
586.27	1122.59
586.472	1128.4
586.674	1104.38
586.875	1093.91
587.077	1077.06
587.278	1110.96
587.48	1053.42
587.681	1200.28
587.883	1117.36
588.084	1033.85
588.285	1062.72
588.487	1049.54
588.688	1075.51
588.89	1003.24
589.091	1013.51
589.292	984.64
589.494	961
589.695	949.38
589.896	920.9
590.098	872.85
590.299	965.07
590.5	912.95
590.702	957.71
590.903	985.8
591.104	1045.28
591.305	1007.7
591.507	1053.61
591.708	1014.67
591.909	969.14
592.11	1074.34
592.311	1035.4
592.512	979.99
592.714	963.91
592.915	979.8
593.116	978.05
593.317	974.56
593.518	986
593.719	987.35
593.92	1024.75
594.121	1074.93
594.322	994.33
594.523	977.28
594.724	954.8
594.925	980.76
595.126	1008.08
595.327	987.74
595.528	965.26
595.729	1021.65
595.929	979.41
596.13	1003.05
596.331	1000.91
596.532	984.64
596.733	1054.78
596.934	1044.12
597.135	1006.92
597.335	1009.05
597.536	980.57
597.737	1022.61
597.938	979.02
598.138	979.41
598.339	940.47
598.54	1022.61
598.74	983.28
598.941	977.66
599.142	1044.12
599.342	1018.55
599.543	938.92
599.744	975.15
599.944	1013.12
600.145	970.5
600.345	1003.24
600.546	1051.68
600.746	1025.71
600.947	1076.09
601.147	1007.89
601.348	997.81
601.548	961.78
601.749	993.36
601.949	963.52
602.15	965.65
602.35	943.18
602.551	1017.77
602.751	932.91
602.951	958.29
603.152	938.33
603.352	1019.32
603.552	954.8
603.753	975.92
603.953	1010.8
604.153	1013.12
604.354	980.96
604.554	972.24
604.754	986.19
604.954	952.09
605.155	987.35
605.355	952.67
605.555	1024.36
605.755	1025.13
605.955	989.48
606.155	999.36
606.356	1015.25
606.556	1025.13
606.756	973.79
606.956	935.62
607.156	1032.3
607.356	946.86
607.556	980.57
607.756	967.01
607.956	1025.52
608.156	961.58
608.356	937.56
608.556	1002.85
608.756	979.8
608.956	921.09
609.156	969.91
609.356	913.34
609.556	918.57
609.755	972.63
609.955	908.69
610.155	932.72
610.355	944.53
610.555	904.82
610.755	916.83
610.954	865.49
611.154	956.93
611.354	983.86
611.554	904.43
611.753	919.15
611.953	886.02
612.153	933.1
612.352	921.67
612.552	868.58
612.752	844.95
612.951	909.85
613.151	900.36
613.351	900.17
613.55	898.42
613.75	905.2
613.949	908.3
614.149	927.48
614.348	905.4
614.548	857.93
614.747	868.78
614.947	883.31
615.146	841.85
615.346	926.71
615.545	886.22
615.745	901.13
615.944	911.02
616.144	904.82
616.343	909.47
616.542	873.62
616.742	881.18
616.941	866.65
617.14	809.1
617.34	879.24
617.539	875.95
617.738	845.53
617.938	924.58
618.137	897.07
618.336	837.2
618.535	895.71
618.734	878.47
618.934	894.55
619.133	855.6
619.332	906.95
619.531	849.79
619.73	845.92
619.929	900.55
620.128	893
620.328	909.85
620.527	858.12
620.726	879.63
620.925	895.52
621.124	849.99
621.323	863.35
621.522	838.17
621.721	839.14
621.92	798.84
622.119	875.56
622.318	841.85
622.517	840.88
622.715	855.99
622.914	770.36
623.113	848.82
623.312	784.89
623.511	867.23
623.71	828.48
623.909	816.08
624.107	878.66
624.306	762.22
624.505	793.22
624.704	807.36
624.902	806.39
625.101	842.04
625.3	837.2
625.499	817.82
625.697	793.8
625.896	774.04
626.095	820.54
626.293	761.83
626.492	780.43
626.69	830.61
626.889	776.94
627.088	817.63
627.286	764.93
627.485	788.18
627.683	759.89
627.882	784.89
628.08	703.32
628.279	731.61
628.477	838.55
628.676	720.56
628.874	775.2
629.073	740.71
629.271	725.6
629.469	762.41
629.668	762.02
629.866	742.46
630.065	755.24
630.263	767.45
630.461	733.74
630.66	747.11
630.858	794.38
631.056	808.52
631.254	791.47
631.453	731.8
631.651	806.78
631.849	762.41
632.047	761.64
632.245	706.42
632.444	770.55
632.642	775.97
632.84	785.47
633.038	732.77
633.236	738.97
633.434	702.93
633.632	726.76
633.83	728.7
634.028	779.85
634.227	731.22
634.425	804.84
634.623	779.46
634.821	755.24
635.019	773.26
635.216	727.34
635.414	756.6
635.612	777.33
635.81	743.62
636.008	829.64
636.206	743.04
636.404	763.19
636.602	707
636.8	745.75
636.997	769.39
637.195	808.91
637.393	746.72
637.591	843.59
637.789	731.8
637.986	757.18
638.184	771.13
638.382	798.64
638.58	784.3
638.777	835.45
638.975	768.22
639.173	757.76
639.37	774.23
639.568	776.94
639.765	776.56
639.963	761.83
640.161	745.75
640.358	774.62
640.556	745.94
640.753	702.54
640.951	738.58
641.148	753.11
641.346	738
641.543	732.96
641.741	747.49
641.938	703.32
642.136	737.61
642.333	711.26
642.531	764.74
642.728	803.29
642.925	721.34
643.123	719.4
643.32	733.16
643.517	730.44
643.715	724.05
643.912	728.12
644.109	745.17
644.306	718.62
644.504	708.74
644.701	716.69
644.898	728.31
645.095	701.38
645.293	720.95
645.49	734.32
645.687	752.53
645.884	755.24
646.081	662.24
646.278	701.38
646.475	703.12
646.672	647.91
646.87	725.79
647.067	706.81
647.264	704.67
647.461	645.78
647.658	655.08
647.855	692.08
648.052	660.11
648.249	629.5
648.446	675.23
648.642	659.73
648.839	649.26
649.036	647.91
649.233	647.33
649.43	617.1
649.627	639.58
649.824	656.43
650.021	628.34
650.217	635.51
650.414	650.81
650.611	700.8
650.808	694.02
651.004	662.05
651.201	654.69
651.398	737.81
651.595	679.68
651.791	671.16
651.988	683.17
652.185	606.44
652.381	658.18
652.578	609.35
652.775	657.21
652.971	632.21
653.168	657.79
653.364	669.22
653.561	619.43
653.757	653.91
653.954	655.66
654.15	632.41
654.347	722.89
654.543	646.36
654.74	617.29
654.936	610.51
655.133	621.75
655.329	649.26
655.525	619.04
655.722	644.61
655.918	597.53
656.115	667.28
656.311	583.39
656.507	539.21
656.704	521.97
656.9	557.62
657.096	531.08
657.292	533.79
657.489	607.41
657.685	574.09
657.881	581.45
658.077	573.31
658.273	586.88
658.47	609.93
658.666	580.68
658.862	638.03
659.058	581.84
659.254	672.9
659.45	580.1
659.646	634.73
659.842	594.24
660.038	646.16
660.234	579.32
660.43	604.51
660.626	667.48
660.822	631.63
661.018	621.75
661.214	577.38
661.41	579.9
661.606	613.03
661.802	650.23
661.998	585.33
662.194	581.45
662.39	618.26
662.586	641.51
662.781	618.46
662.977	608.19
663.173	625.24
663.369	615.36
663.564	646.94
663.76	612.26
663.956	580.1
664.152	624.46
664.347	556.07
664.543	621.36
664.739	592.11
664.934	550.06
665.13	563.63
665.326	629.69
665.521	615.36
665.717	586.3
665.912	563.43
666.108	520.61
666.304	569.83
666.499	581.26
666.695	529.33
666.89	578.35
667.086	611.09
667.281	590.75
667.477	667.48
667.672	575.25
667.867	584.55
668.063	580.48
668.258	553.94
668.454	569.83
668.649	666.7
668.844	586.68
669.04	600.63
669.235	551.42
669.43	540.38
669.626	496.2
669.821	568.47
670.016	537.47
670.211	552.39
670.407	530.5
670.602	549.87
670.797	522.16
670.992	587.85
671.187	541.15
671.382	611.29
671.578	524.3
671.773	603.54
671.968	533.6
672.163	566.73
672.358	584.36
672.553	542.31
672.748	534.95
672.943	616.91
673.138	568.47
673.333	584.36
673.528	548.32
673.723	582.42
673.918	551.81
674.113	518.68
674.308	627.76
674.503	599.28
674.698	595.01
674.892	578.35
675.087	584.16
675.282	575.25
675.477	544.06
675.672	580.68
675.867	556.65
676.061	510.15
676.256	517.32
676.451	510.73
676.646	534.76
676.84	507.25
677.035	486.52
677.23	509.77
677.424	557.23
677.619	568.47
677.814	597.73
678.008	574.48
678.203	471.79
678.397	512.28
678.592	541.93
678.787	590.17
678.981	558.59
679.176	563.82
679.37	514.42
679.565	515.19
679.759	539.41
679.954	547.74
680.148	583.78
680.342	569.25
680.537	568.86
680.731	546.77
680.926	578.55
681.12	549.29
681.314	533.98
681.509	515
681.703	549.29
681.897	536.31
682.092	544.64
682.286	533.98
682.48	618.07
682.674	590.17
682.869	538.83
683.063	533.98
683.257	604.89
683.451	506.86
683.645	543.28
683.839	533.4
684.034	551.23
684.228	584.16
684.422	515.58
684.616	486.9
684.81	551.81
685.004	510.73
685.198	532.63
685.392	561.88
685.586	518.68
685.78	527.98
685.974	553.55
686.168	536.5
686.362	576.22
686.556	487.87
686.75	475.67
686.944	469.27
687.138	480.12
687.331	408.63
687.525	403.59
687.719	403.79
687.913	427.23
688.107	430.52
688.301	391.77
688.494	458.03
688.688	425.68
688.882	378.4
689.076	384.41
689.269	400.3
689.463	507.05
689.657	436.53
689.85	431.3
690.044	448.15
690.238	445.25
690.431	430.33
690.625	432.85
690.818	454.16
691.012	452.42
691.205	481.87
691.399	446.6
691.593	484.58
691.786	519.26
691.98	520.23
692.173	567.5
692.366	536.31
692.56	533.79
692.753	555.3
692.947	468.11
693.14	575.45
693.333	539.6
693.527	463.46
693.72	550.84
693.914	531.27
694.107	527.98
694.3	548.13
694.493	528.56
694.687	564.6
694.88	535.53
695.073	578.74
695.266	567.11
695.46	533.98
695.653	607.99
695.846	594.63
696.039	511.9
696.232	569.83
696.425	603.54
696.618	592.3
696.812	597.73
697.005	648.68
697.198	743.81
697.391	612.64
697.584	631.24
697.777	690.34
697.97	652.94
698.163	690.92
698.356	652.56
698.549	724.82
698.742	712.42
698.935	699.44
699.127	689.37
699.32	669.61
699.513	656.43
699.706	729.09
699.899	727.73
700.092	677.16
700.285	740.71
700.477	672.32
700.67	708.94
700.863	746.72
701.056	798.84
701.248	773.84
701.441	780.62
701.634	754.47
701.826	856.57
702.019	747.3
702.212	790.7
702.404	740.71
702.597	752.53
702.79	787.4
702.982	804.84
703.175	822.86
703.367	845.92
703.56	840.88
703.752	902.68
703.945	879.24
704.137	879.05
704.33	903.65
704.522	911.21
704.715	943.76
704.907	946.47
705.1	940.47
705.292	933.88
705.484	928.07
705.677	976.5
705.869	975.34
706.061	1009.83
706.254	1024.75
706.446	992.78
706.638	976.31
706.831	1051.29
707.023	1001.3
707.215	1087.71
707.407	1072.6
707.599	1040.63
707.792	1140.61
707.984	1104.96
708.176	1125.11
708.368	1106.7
708.56	1108.25
708.752	1132.27
708.944	1113.48
709.136	1153.97
709.329	1116
709.521	1248.91
709.713	1194.66
709.905	1219.27
710.097	1252.98
710.289	1153.01
710.481	1198.54
710.672	1224.3
710.864	1204.74
711.056	1309.36
711.248	1273.13
711.44	1306.26
711.632	1281.27
711.824	1325.63
712.016	1346.95
712.207	1316.72
712.399	1318.47
712.591	1376.78
712.783	1365.16
712.975	1365.55
713.166	1353.53
713.358	1385.5
713.55	1433.16
713.741	1439.17
713.933	1424.25
714.125	1421.35
714.316	1429.1
714.508	1484.12
714.7	1520.16
714.891	1485.86
715.083	1567.43
715.274	1488.96
715.466	1473.85
715.657	1547.86
715.849	1441.11
716.04	1493.42
716.232	1450.21
716.423	1524.42
716.615	1442.66
716.806	1437.43
716.998	1399.06
717.189	1349.66
717.381	1301.8
717.572	1281.46
717.763	1296.57
717.955	1294.44
718.146	1268.87
718.337	1235.74
718.528	1172.77
718.72	1169.09
718.911	1213.84
719.102	1188.85
719.293	1247.94
719.485	1226.44
719.676	1211.91
719.867	1159.01
720.058	1195.44
720.249	1207.45
720.44	1244.07
720.632	1280.1
720.823	1301.8
721.014	1360.32
721.205	1371.36
721.396	1455.64
721.587	1537.4
721.778	1556.97
721.969	1595.52
722.16	1650.55
722.351	1626.72
722.542	1741.22
722.733	1761.76
722.924	1685.23
723.115	1703.44
723.305	1699.57
723.496	1733.28
723.687	1609.67
723.878	1629.04
724.069	1629.43
724.26	1672.25
724.45	1597.27
724.641	1613.16
724.832	1633.69
725.023	1611.22
725.213	1606.76
725.404	1583.71
725.595	1599.79
725.785	1606.37
725.976	1704.41
726.167	1642.8
726.357	1662.17
726.548	1757.11
726.739	1666.82
726.929	1737.74
727.12	1768.73
727.31	1766.6
727.501	1768.54
727.691	1747.42
727.882	1783.85
728.072	1787.72
728.263	1810.97
728.453	1821.24
728.644	1848.17
728.834	1849.33
729.024	1830.93
729.215	1798.96
729.405	1892.93
729.596	1915.21
729.786	1921.21
729.976	1921.41
730.167	1944.85
730.357	1951.63
730.547	1922.96
730.737	2012.08
730.928	1994.64
731.118	2024.48
731.308	1947.37
731.498	2005.3
731.688	2073.89
731.879	2087.26
732.069	2131.24
732.259	2185.48
732.449	2189.17
732.639	2285.46
732.829	2284.88
733.019	2293.4
733.209	2365.09
733.399	2336.8
733.589	2414.49
733.779	2404.42
733.969	2403.64
734.159	2533.84
734.349	2500.52
734.539	2561.74
734.729	2522.8
734.919	2603.59
735.109	2658.81
735.299	2560.39
735.488	2625.1
735.678	2630.33
735.868	2584.6
736.058	2616.57
736.248	2613.09
736.437	2580.92
736.627	2595.65
736.817	2733.6
737.007	2661.33
737.196	2713.45
737.386	2686.13
737.576	2668.11
737.765	2723.71
737.955	2719.45
738.144	2818.26
738.334	2770.02
738.524	2733.98
738.713	2763.43
738.903	2769.44
739.092	2803.34
739.282	2779.51
739.471	2807.22
739.661	2800.44
739.85	2883.36
740.04	2866.31
740.229	2926.18
740.419	2915.91
740.608	2930.64
740.797	2910.29
740.987	3006.78
741.176	2987.99
741.365	2896.73
741.555	2898.09
741.744	2992.25
741.933	2888.01
742.123	2987.79
742.312	2994.19
742.501	2981.01
742.69	3045.72
742.88	2965.51
743.069	3040.3
743.258	3008.33
743.447	3068.97
743.636	3101.13
743.825	3042.62
744.014	3056.77
744.204	3109.66
744.393	3006.2
744.582	3156.35
744.771	3128.84
744.96	3087.38
745.149	3158.1
745.338	3106.37
745.527	3167.2
745.716	3111.6
745.905	3078.08
746.094	3167.4
746.283	3184.06
746.471	3151.7
746.66	3212.15
746.849	3151.9
747.038	3192.39
747.227	3192.39
747.416	3173.6
747.604	3122.64
747.793	3186.58
747.982	3156.16
748.171	3184.06
748.359	3178.44
748.548	3183.09
748.737	3133.88
748.926	3161.2
749.114	3097.65
749.303	3197.23
749.491	3161.39
749.68	3104.82
749.869	3206.34
750.057	3158.68
750.246	3124
750.434	3165.65
750.623	3152.48
750.811	3113.92
751	3206.34
751.188	3161
751.377	3167.98
751.565	3113.73
751.754	3087.77
751.942	3141.24
752.131	3147.05
752.319	3088.35
752.507	3078.08
752.696	3158.48
752.884	3149.18
753.072	3115.08
753.261	3102.3
753.449	3141.82
753.637	3080.21
753.825	3193.36
754.014	3091.83
754.202	3151.31
754.39	3152.67
754.578	3162.55
754.766	3110.63
754.955	3099.39
755.143	3190.84
755.331	3107.53
755.519	3108.88
755.707	3095.9
755.895	3090.87
756.083	3083.5
756.271	3046.3
756.459	3097.26
756.647	3105.2
756.835	3092.61
757.023	3067.23
757.211	3034.87
757.399	3063.35
757.587	3059.87
757.775	3004.45
757.963	3009.1
758.151	3047.08
758.339	3003.1
758.526	3001.35
758.714	3041.07
758.902	2921.14
759.09	2808.96
759.278	2646.02
759.465	2461.19
759.653	2128.14
759.841	1943.88
760.028	1630.4
760.216	1422.9
760.404	1346.37
760.591	1131.5
760.779	917.8
760.967	802.13
761.154	664.96
761.342	733.93
761.529	722.31
761.717	770.55
761.905	747.49
762.092	813.56
762.28	775.59
762.467	747.11
762.655	696.15
762.842	726.18
763.029	723.86
763.217	738.19
763.404	742.84
763.592	741.1
763.779	717.07
763.966	758.15
764.154	806.59
764.341	846.5
764.528	853.09
764.716	929.62
764.903	980.38
765.09	1041.6
765.277	1092.56
765.465	1251.24
765.652	1264.6
765.839	1306.26
766.026	1447.5
766.213	1493.81
766.4	1558.71
766.588	1775.32
766.775	1750.13
766.962	1866.19
767.149	1929.93
767.336	2096.36
767.523	2018.67
767.71	2141.7
767.897	2224.23
768.084	2302.12
768.271	2368.19
768.458	2404.61
768.645	2429.03
768.832	2457.51
769.019	2449.76
769.206	2495.48
769.392	2558.64
769.579	2677.41
769.766	2590.8
769.953	2645.05
770.14	2662.49
770.327	2619.87
770.513	2710.54
770.7	2741.35
770.887	2707.05
771.073	2712.09
771.26	2718.87
771.447	2731.08
771.634	2665.59
771.82	2752.39
772.007	2681.28
772.193	2713.64
772.38	2792.3
772.567	2716.35
772.753	2673.73
772.94	2784.94
773.126	2798.11
773.313	2782.61
773.499	2745.22
773.686	2769.44
773.872	2696.78
774.059	2709.57
774.245	2684.58
774.432	2705.31
774.618	2641.76
774.804	2708.21
774.991	2672.37
775.177	2686.32
775.363	2692.13
775.55	2642.53
775.736	2704.15
775.922	2634.59
776.109	2645.83
776.295	2690.58
776.481	2655.71
776.667	2710.15
776.853	2654.93
777.04	2645.25
777.226	2637.88
777.412	2718.87
777.598	2626.45
777.784	2637.88
777.97	2588.09
778.156	2643.7
778.342	2633.23
778.528	2600.3
778.715	2541.79
778.901	2534.04
779.087	2588.29
779.272	2569.69
779.458	2563.68
779.644	2621.22
779.83	2551.47
780.016	2628.78
780.202	2549.73
780.388	2547.99
780.574	2485.41
780.76	2511.17
780.946	2576.27
781.131	2514.27
781.317	2524.16
781.503	2482.89
781.689	2517.96
781.874	2612.7
782.06	2498.58
782.246	2569.1
782.432	2506.52
782.617	2536.94
782.803	2560.39
782.989	2452.27
783.174	2544.89
783.36	2415.85
783.545	2444.33
783.731	2448.01
783.916	2394.93
784.102	2462.74
784.288	2416.43
784.473	2442.97
784.659	2405
784.844	2477.27
785.029	2410.43
785.215	2420.31
785.4	2340.48
785.586	2425.93
785.771	2354.04
785.956	2407.13
786.142	2380.78
786.327	2350.75
786.512	2388.73
786.698	2331.38
786.883	2297.08
787.068	2318.2
787.254	2369.54
787.439	2308.51
787.624	2355.21
787.809	2302.7
787.994	2317.04
788.18	2350.95
788.365	2210.67
788.55	2273.25
788.735	2273.25
788.92	2271.7
789.105	2265.89
789.29	2250.58
789.475	2178.32
789.66	2224.04
789.845	2222.1
790.03	2198.08
790.215	2215.71
790.4	2237.41
790.585	2243.61
790.77	2203.7
790.955	2126.2
791.14	2241.87
791.325	2247.87
791.51	2082.02
791.695	2172.31
791.879	2151.77
792.064	2108.57
792.249	2205.44
792.434	2184.71
792.618	2161.65
792.803	2200.98
792.988	2131.24
793.173	2151.19
793.357	2188.58
793.542	2095.78
793.727	2159.72
793.911	2213
794.096	2161.65
794.281	2199.05
794.465	2266.86
794.65	2163.01
794.834	2235.28
795.019	2225.59
795.203	2226.17
795.388	2237.6
795.572	2241.87
795.757	2213.77
795.941	2251.94
796.126	2171.15
796.31	2155.26
796.494	2238.77
796.679	2176.77
796.863	2098.69
797.048	2278.29
797.232	2174.05
797.416	2213.58
797.601	2200.6
797.785	2244.58
797.969	2267.05
798.153	2186.84
798.338	2228.5
798.522	2234.5
798.706	2244.77
798.89	2227.72
799.074	2324.98
799.258	2284.1
799.443	2247.68
799.627	2249.23
799.811	2270.54
799.995	2222.88
800.179	2225.78
800.363	2205.83
800.547	2239.93
800.731	2230.43
800.915	2187.23
801.099	2208.54
801.283	2202.73
801.467	2218.03
801.651	2192.85
801.835	2264.73
802.019	2194.98
802.202	2200.21
802.386	2168.05
802.57	2163.2
802.754	2181.22
802.938	2146.93
803.121	2180.83
803.305	2228.5
803.489	2151.77
803.673	2193.23
803.856	2238.77
804.04	2199.24
804.224	2188.2
804.407	2217.45
804.591	2196.53
804.775	2174.44
804.958	2217.84
805.142	2284.49
805.326	2200.21
805.509	2249.03
805.693	2248.65
805.876	2291.46
806.06	2256.78
806.243	2221.33
806.427	2253.68
806.61	2261.63
806.794	2222.88
806.977	2221.91
807.16	2214.16
807.344	2251.17
807.527	2237.41
807.71	2189.55
807.894	2248.65
808.077	2293.6
808.26	2184.13
808.444	2185.68
808.627	2228.69
808.81	2187.03
808.993	2135.3
809.177	2132.98
809.36	2153.32
809.543	2164.95
809.726	2087.84
809.909	2068.46
810.092	2112.44
810.276	2075.05
810.459	2104.11
810.642	2051.8
810.825	2045.41
811.008	2041.14
811.191	1983.6
811.374	1987.28
811.557	2011.69
811.74	2083.19
811.923	1934.78
812.106	1940.78
812.289	1888.47
812.472	1904.16
812.654	1940.59
812.837	1874.71
813.02	1861.73
813.203	1843.52
813.386	1712.16
813.569	1748
813.751	1660.43
813.934	1732.7
814.117	1687.55
814.3	1663.34
814.482	1636.99
814.665	1565.88
814.848	1543.41
815.03	1518.22
815.213	1512.99
815.396	1485.09
815.578	1504.08
815.761	1475.01
815.943	1527.91
816.126	1415.73
816.309	1420.96
816.491	1335.52
816.674	1292.31
816.856	1345.4
817.039	1322.15
817.221	1411.66
817.403	1390.73
817.586	1386.08
817.768	1397.71
817.951	1316.14
818.133	1290.18
818.315	1324.86
818.498	1372.33
818.68	1407.59
818.862	1380.66
819.045	1413.98
819.227	1404.3
819.409	1366.32
819.591	1395.38
819.774	1371.94
819.956	1348.5
820.138	1430.84
820.32	1442.66
820.502	1465.91
820.684	1502.72
820.866	1530.43
821.048	1568.98
821.231	1543.99
821.413	1562.2
821.595	1547.86
821.777	1557.55
821.959	1553.09
822.141	1603.47
822.323	1462.23
822.505	1454.09
822.686	1407.59
822.868	1350.63
823.05	1269.06
823.232	1210.94
823.414	1171.99
823.596	1236.32
823.778	1227.21
823.96	1237.09
824.141	1267.9
824.323	1271.39
824.505	1323.5
824.687	1383.37
824.868	1432.97
825.05	1535.85
825.232	1559.68
825.413	1577.7
825.595	1535.27
825.777	1458.74
825.958	1508.92
826.14	1499.62
826.321	1525.78
826.503	1529.46
826.685	1558.13
826.866	1579.25
827.048	1537.21
827.229	1498.46
827.411	1492.06
827.592	1417.47
827.773	1383.18
827.955	1366.13
828.136	1386.08
828.318	1337.07
828.499	1387.83
828.68	1345.2
828.862	1413.79
829.043	1369.23
829.224	1365.74
829.406	1339.97
829.587	1323.31
829.768	1357.41
829.949	1348.5
830.131	1330.09
830.312	1399.45
830.493	1362.64
830.674	1365.74
830.855	1340.55
831.036	1369.23
831.218	1419.21
831.399	1426.19
831.58	1365.74
831.761	1364.77
831.942	1402.94
832.123	1366.52
832.304	1322.73
832.485	1359.54
832.666	1342.3
832.847	1440.91
833.028	1394.8
833.209	1369.23
833.389	1358.96
833.57	1335.32
833.751	1343.07
833.932	1394.41
834.113	1387.63
834.294	1365.16
834.475	1386.86
834.655	1438.2
834.836	1451.76
835.017	1409.14
835.198	1332.03
835.378	1432.78
835.559	1433.16
835.74	1417.08
835.92	1390.54
836.101	1352.57
836.281	1430.26
836.462	1385.5
836.643	1424.45
836.823	1438.98
837.004	1418.05
837.184	1475.98
837.365	1428.71
837.545	1482.57
837.726	1386.47
837.906	1477.15
838.087	1437.04
838.267	1436.26
838.448	1389.57
838.628	1397.32
838.808	1417.47
838.989	1457.77
839.169	1405.26
839.349	1512.6
839.53	1481.21
839.71	1481.79
839.89	1426.58
840.07	1513.38
840.251	1397.51
840.431	1497.88
840.611	1439.56
840.791	1380.27
840.971	1431.61
841.151	1401
841.332	1443.05
841.512	1459.71
841.692	1347.14
841.872	1439.75
842.052	1414.37
842.232	1439.56
842.412	1379.69
842.592	1412.82
842.772	1424.06
842.952	1415.73
843.132	1386.08
843.312	1395
843.492	1362.06
843.672	1416.7
843.851	1372.33
844.031	1425.8
844.211	1391.12
844.391	1389.38
844.571	1396.93
844.751	1386.47
844.93	1422.7
845.11	1340.36
845.29	1363.8
845.47	1410.5
845.649	1425.41
845.829	1387.25
846.009	1345.2
846.188	1375.23
846.368	1395.58
846.547	1388.99
846.727	1396.74
846.907	1368.07
847.086	1398.29
847.266	1374.65
847.445	1396.93
847.625	1344.82
847.804	1333
847.984	1346.56
848.163	1394.8
848.343	1355.67
848.522	1359.35
848.701	1371.17
848.881	1320.02
849.06	1348.3
849.239	1319.82
849.419	1332.61
849.598	1282.62
849.777	1292.31
849.957	1281.07
850.136	1205.9
850.315	1219.46
850.494	1237.87
850.674	1241.55
850.853	1290.57
851.032	1226.24
851.211	1301.03
851.39	1242.32
851.569	1182.84
851.748	1204.74
851.927	1273.9
852.107	1249.88
852.286	1200.86
852.465	1189.82
852.644	1282.82
852.823	1239.03
853.002	1208.61
853.181	1282.62
853.359	1253.17
853.538	1209.77
853.717	1295.22
853.896	1157.66
854.075	1117.36
854.254	1090.23
854.433	1030.75
854.611	1077.44
854.79	1036.56
854.969	1118.52
855.148	1121.04
855.327	1088.1
855.505	1142.54
855.684	1115.23
855.863	1133.05
856.041	1120.07
856.22	1168.12
856.399	1121.62
856.577	1217.72
856.756	1203.19
856.934	1322.53
857.113	1275.65
857.291	1190.79
857.47	1187.11
857.648	1200.86
857.827	1206.29
858.005	1245.42
858.184	1183.62
858.362	1293.47
858.541	1185.94
858.719	1181.87
858.898	1186.14
859.076	1162.11
859.254	1227.4
859.433	1177.03
859.611	1145.26
859.789	1116.97
859.967	1213.07
860.146	1223.72
860.324	1148.55
860.502	1155.72
860.68	1102.44
860.859	1152.81
861.037	1133.05
861.215	1168.89
861.393	1157.07
861.571	1142.16
861.749	1123.94
861.927	1143.12
862.105	1130.34
862.283	1134.41
862.461	1114.45
862.639	1091.2
862.817	1101.86
862.995	1140.02
863.173	1104.76
863.351	1100.89
863.529	1157.85
863.707	1175.48
863.885	1132.08
864.063	1071.83
864.241	1088.88
864.418	1158.04
864.596	1071.63
864.774	1050.71
864.952	1122.59
865.129	1121.04
865.307	1082.87
865.485	1041.6
865.663	1108.06
865.84	1041.79
866.018	1032.69
866.196	951.51
866.373	948.8
866.551	948.02
866.728	889.9
866.906	959.26
867.084	967.4
867.261	984.25
867.439	1017.77
867.616	1025.71
867.794	1008.66
867.971	1006.53
868.149	1001.69
868.326	1075.12
868.503	1051.29
868.681	1024.55
868.858	1017.96
869.035	1019.51
869.213	1041.41
869.39	977.08
869.567	1060.98
869.745	975.53
869.922	1011.96
870.099	1045.28
870.276	1020.1
870.454	1011.76
870.631	1038.7
870.808	1005.76
870.985	1028.62
871.162	1080.74
871.339	1046.83
871.517	976.11
871.694	994.52
871.871	1017.38
872.048	1027.46
872.225	1006.34
872.402	997.43
872.579	969.72
872.756	1020.68
872.933	966.62
873.11	964.88
873.287	1002.46
873.463	982.12
873.64	920.12
873.817	1013.51
873.994	964.88
874.171	948.8
874.348	980.76
874.524	927.48
874.701	946.08
874.878	928.07
875.055	998.2
875.231	947.63
875.408	985.8
875.585	902.49
875.762	963.91
875.938	941.63
876.115	924.19
876.291	930.78
876.468	939.88
876.645	889.9
876.821	925.35
876.998	900.94
877.174	904.62
877.351	898.42
877.527	875.75
877.704	885.44
877.88	915.28
878.057	906.95
878.233	953.25
878.409	869.94
878.586	914.31
878.762	888.35
878.938	895.9
879.115	856.57
879.291	883.7
879.467	859.67
879.644	867.81
879.82	906.56
879.996	820.54
880.172	840.49
880.349	848.63
880.525	884.67
880.701	836.42
880.877	843.98
881.053	873.62
881.229	861.03
881.405	896.1
881.581	852.89
881.757	861.03
881.933	869.17
882.109	880.6
882.285	887.96
882.461	805.81
882.637	867.62
882.813	800.77
882.989	842.62
883.165	893
883.341	836.23
883.517	889.9
883.693	859.67
883.869	887.18
884.044	830.8
884.22	883.12
884.396	891.25
884.572	869.94
884.747	889.9
884.923	902.49
885.099	880.02
885.275	913.34
885.45	832.74
885.626	832.55
885.801	842.04
885.977	838.17
886.153	787.79
886.328	879.63
886.504	831.58
886.679	889.9
886.855	821.7
887.03	859.48
887.206	898.23
887.381	844.95
887.557	859.29
887.732	875.75
887.908	863.35
888.083	879.63
888.258	842.82
888.434	855.8
888.609	838.17
888.784	894.55
888.96	845.34
889.135	819.95
889.31	812.79
889.485	851.34
889.661	836.42
889.836	889.51
890.011	854.44
890.186	836.42
890.361	803.87
890.537	878.85
890.712	814.53
890.887	872.85
891.062	897.07
891.237	865.1
891.412	835.07
891.587	825.57
891.762	877.3
891.937	895.52
892.112	801.94
892.287	838.55
892.462	801.55
892.637	788.57
892.812	758.92
892.987	751.56
893.161	782.17
893.336	750.21
893.511	781.98
893.686	781.4
893.861	786.82
894.035	762.41
894.21	760.86
894.385	720.17
894.56	737.81
894.734	689.95
894.909	707
895.084	707.97
895.258	653.72
895.433	713.01
895.608	700.99
895.782	606.64
895.957	669.8
896.131	653.53
896.306	611.09
896.48	588.62
896.655	582.03
896.829	531.08
897.004	585.91
897.178	577
897.353	547.16
897.527	606.25
897.701	576.61
897.876	499.11
898.05	613.23
898.224	560.53
898.399	636.67
898.573	564.4
898.747	475.28
898.921	507.05
899.096	451.83
899.27	444.08
899.444	463.27
899.618	494.46
899.792	525.46
899.967	481.28
900.141	514.61
900.315	465.78
900.489	485.55
900.663	515
900.837	485.35
901.011	461.33
901.185	534.76
901.359	492.13
901.533	492.33
901.707	491.55
901.881	515.97
902.055	456.48
902.229	503.95
902.403	547.74
902.576	483.8
902.75	523.91
902.924	597.53
903.098	537.86
903.272	583
903.446	634.15
903.619	616.33
903.793	618.07
903.967	612.06
904.14	639.96
904.314	638.03
904.488	628.34
904.661	649.46
904.835	626.59
905.009	681.43
905.182	660.69
905.356	652.36
905.529	630.08
905.703	595.21
905.876	604.89
906.05	577.58
906.223	556.26
906.397	525.85
906.57	509.18
906.744	485.93
906.917	477.02
907.09	487.48
907.264	489.81
907.437	436.72
907.61	432.07
907.784	434.59
907.957	484.97
908.13	444.08
908.304	511.7
908.477	427.42
908.65	464.23
908.823	451.25
908.996	496.2
909.17	423.94
909.343	395.26
909.516	440.79
909.689	436.33
909.862	416.96
910.035	429.75
910.208	387.32
910.381	418.9
910.554	495.62
910.727	408.24
910.9	436.53
911.073	410.18
911.246	485.35
911.419	457.45
911.592	468.88
911.765	397.2
911.938	391.97
912.11	451.25
912.283	437.11
912.456	479.54
912.629	432.65
912.802	380.92
912.974	381.5
913.147	334.81
913.32	320.28
913.493	332.68
913.665	345.47
913.838	345.66
914.01	380.54
914.183	381.5
914.356	347.79
914.528	413.28
914.701	437.11
914.873	411.92
915.046	388.87
915.218	329.58
915.391	276.3
915.563	305.75
915.736	364.45
915.908	378.99
916.081	370.27
916.253	343.14
916.425	388.87
916.598	396.62
916.77	369.88
916.942	331.32
917.115	284.82
917.287	344.69
917.459	329.77
917.632	305.36
917.804	256.15
917.976	339.66
918.148	361.16
918.32	342.95
918.493	355.74
918.665	428.59
918.837	386.93
919.009	427.81
919.181	426.45
919.353	394.1
919.525	366.78
919.697	399.33
919.869	394.1
920.041	430.33
920.213	501.05
920.385	433.04
920.557	404.75
920.729	444.86
920.901	429.75
921.073	392.35
921.244	404.37
921.416	427.62
921.588	435.17
921.76	380.92
921.932	453.19
922.103	393.9
922.275	387.9
922.447	383.83
922.619	347.6
922.79	391.19
922.962	346.05
923.134	439.05
923.305	369.69
923.477	332.29
923.648	340.82
923.82	354.38
923.991	299.16
924.163	310.01
924.335	331.52
924.506	311.37
924.677	399.14
924.849	291.22
925.02	336.75
925.192	354.96
925.363	335.97
925.535	335.97
925.706	320.67
925.877	387.9
926.049	304.39
926.22	346.24
926.391	356.9
926.562	351.09
926.734	318.15
926.905	328.81
927.076	292.57
927.247	296.45
927.419	284.44
927.59	265.45
927.761	302.65
927.932	261.96
928.103	273.01
928.274	239.1
928.445	223.02
928.616	245.49
928.787	232.13
928.958	278.82
929.129	261.57
929.3	232.71
929.471	197.64
929.642	154.43
929.813	120.91
929.984	233.48
930.155	124.98
930.326	205.78
930.496	161.21
930.667	110.06
930.838	157.15
931.009	134.67
931.18	127.5
931.35	140.1
931.521	140.87
931.692	67.25
931.863	108.13
932.033	118.78
932.204	98.44
932.374	90.88
932.545	41.67
932.716	143.2
932.886	120.91
933.057	25.98
933.227	60.08
933.398	106.58
933.568	47.29
933.739	13.19
933.909	7.18
934.08	83.52
934.25	-25.17
934.421	32.18
934.591	69.77
934.761	19.78
934.932	-9.86
935.102	29.66
935.272	4.47
935.443	37.6
935.613	37.22
935.783	56.78
935.953	26.75
936.123	184.85
936.294	0.6
936.464	9.32
936.634	27.53
936.804	3.12
936.974	-16.26
937.144	34.31
937.314	18.81
937.484	30.82
937.655	10.48
937.825	59.69
937.995	22.68
938.165	66.67
938.334	25.59
938.504	52.13
938.674	38.38
938.844	48.07
939.014	97.28
939.184	72.09
939.354	133.31
939.524	109.87
939.694	68.41
939.863	62.21
940.033	151.33
940.203	127.7
940.373	101.35
940.542	89.53
940.712	66.86
940.882	110.84
941.051	83.71
941.221	103.48
941.391	122.85
941.56	79.07
941.73	41.67
941.899	181.56
942.069	41.67
942.238	100.96
942.408	43.61
942.577	109.1
942.747	88.36
942.916	7.18
943.086	47.1
943.255	108.13
943.425	73.25
943.594	76.74
943.763	6.41
943.933	36.25
944.102	9.12
944.271	35.67
944.441	87.01
944.61	27.92
944.779	42.45
944.948	146.49
945.117	30.82
945.287	56.78
945.456	-13.55
945.625	29.08
945.794	49.62
945.963	13
946.132	76.55
946.301	64.15
946.47	70.54
946.639	-0.18
946.808	55.62
946.977	87.4
947.146	128.28
947.315	37.22
947.484	80.61
947.653	37.22
947.822	20.17
947.991	12.42
948.16	163.35
948.329	110.06
948.498	61.24
948.666	37.6
948.835	82.55
949.004	10.67
949.173	3.31
949.341	58.53
949.51	63.95
949.679	105.03
949.847	70.15
950.016	126.34
950.185	102.31
950.353	37.8
950.522	56.78
950.69	99.21
950.859	37.6
951.028	85.26
951.196	64.34
951.365	41.67
951.533	67.63
951.701	89.33
951.87	67.44
952.038	3.7
952.207	60.66
952.375	107.74
952.543	39.73
952.712	36.83
952.88	43.8
953.048	104.06
953.217	65.5
953.385	48.07
953.553	118.01
953.721	42.83
953.89	39.73
954.058	12.8
954.226	33.34
954.394	64.53
954.562	26.75
954.73	64.73
954.898	66.86
955.067	79.45
955.235	33.73
955.403	68.6
955.571	133.31
955.739	77.71
955.907	21.91
956.075	30.43
956.243	43.22
956.41	72.87
956.578	9.51
956.746	10.67
956.914	42.45
957.082	87.4
957.25	72.28
957.418	37.6
957.585	44.58
957.753	92.24
957.921	26.37
958.089	53.3
958.256	107.55
958.424	70.73
958.592	79.26
958.759	30.82
958.927	105.22
959.095	33.34
959.262	62.6
959.43	69.77
959.597	35.67
959.765	33.34
959.932	42.83
960.1	103.48
960.267	57.56
960.435	41.28
960.602	89.14
960.77	50.97
960.937	17.65
961.104	68.22
961.272	26.75
961.439	43.42
961.606	74.61
961.774	95.73
961.941	53.1
962.108	72.87
962.275	70.73
962.443	112.2
962.61	57.56
962.777	106.19
962.944	98.25
963.111	90.69
963.278	97.86
963.446	70.15
963.613	76.74
963.78	102.12
963.947	110.45
964.114	70.35
964.281	165.67
964.448	90.5
964.615	41.67
964.782	93.21
964.949	96.11
965.116	93.79
965.282	123.24
965.449	74.22
965.616	40.9
965.783	77.9
965.95	93.01
966.117	30.24
966.283	63.57
966.45	65.12
966.617	98.25
966.784	112.39
966.95	113.16
967.117	126.34
967.284	76.93
967.45	57.56
967.617	121.5
967.784	113.16
967.95	129.25
968.117	82.16
968.283	104.83
968.45	187.37
968.616	113.16
968.783	124.79
968.949	96.5
969.116	128.66
969.282	75.97
969.449	104.45
969.615	95.73
969.781	58.92
969.948	64.15
970.114	66.47
970.28	173.61
970.447	82.75
970.613	150.95
970.779	79.45
970.945	112
971.112	85.65
971.278	118.59
971.444	82.55
971.61	143.58
971.776	84.49
971.942	105.8
972.108	97.86
972.275	85.85
972.441	136.41
972.607	126.73
972.773	72.67
972.939	106.77
973.105	80.23
973.271	40.51
973.437	60.66
973.602	42.45
973.768	100.38
973.934	87.4
974.1	109.48
974.266	12.22
974.432	108.32
974.598	85.26
974.763	90.69
974.929	62.98
975.095	142.03
975.261	55.43
975.426	35.86
975.592	75.77
975.758	124.21
975.923	43.03
976.089	68.8
976.255	117.04
976.42	87.01
976.586	87.2
976.751	88.17
976.917	166.06
977.082	123.82
977.248	51.17
977.413	35.28
977.579	78.87
977.744	85.07
977.91	55.04
978.075	52.52
978.24	117.43
978.406	81.39
978.571	71.9
978.736	25.2
978.902	106.38
979.067	24.23
979.232	40.51
979.397	79.07
979.563	134.48
979.728	32.37
979.893	71.7
980.058	55.43
980.223	106.58
980.388	74.42
980.554	51.75
980.719	72.09
980.884	85.65
981.049	74.42
981.214	83.91
981.379	97.66
981.544	69.18
981.709	78.48
981.874	61.24
982.039	79.65
982.204	99.41
982.368	95.15
982.533	55.82
982.698	104.45
982.863	90.69
983.028	51.55
983.193	92.63
983.357	108.32
983.522	63.37
983.687	60.66
983.852	80.23
984.016	76.93
984.181	82.94
984.346	80.81
984.51	97.47
984.675	75.19
984.839	81.39
985.004	88.17
985.168	115.49
985.333	60.66
985.498	71.51
985.662	112.97
985.827	81.58
985.991	76.74
986.155	75.58
986.32	117.62
986.484	130.99
986.649	113.36
986.813	23.27
986.977	69.77
987.142	58.92
987.306	39.54
987.47	31.02
987.634	97.08
987.799	74.8
987.963	81.78
988.127	93.21
988.291	152.11
988.455	67.44
988.62	64.53
988.784	83.52
988.948	103.09
989.112	62.6
989.276	101.54
989.44	67.63
989.604	70.54
989.768	61.24
989.932	142.42
990.096	45.55
990.26	41.09
990.424	27.14
990.588	70.35
990.752	120.53
990.915	111.03
991.079	44.38
991.243	43.03
991.407	119.95
991.571	71.51
991.734	99.41
991.898	83.71
992.062	158.7
992.226	88.56
992.389	49.42
992.553	10.28
992.717	32.37
992.88	54.65
993.044	93.01
993.207	51.17
993.371	112.2
993.535	91.27
993.698	64.34
993.862	107.16
994.025	104.64
994.189	89.72
994.352	85.85
994.515	94.95
994.679	84.68
994.842	52.13
995.006	92.05
995.169	19.2
995.332	58.53
995.496	101.54
995.659	5.63
995.822	66.08
995.985	42.64
996.149	114.91
996.312	61.05
996.475	126.34
996.638	70.54
996.801	115.49
996.964	131.76
997.128	35.28
997.291	54.85
997.454	61.43
997.617	7.77
997.78	109.68
997.943	47.87
998.106	80.81
998.269	33.53
998.432	79.65
998.595	65.89
998.758	37.8
998.92	42.25
999.083	5.83
999.246	45.16
999.409	26.75
999.572	9.51
999.735	26.95
999.897	69.57
1000.06	40.12
1000.223	56.59
1000.386	82.16
1000.548	49.03
1000.711	76.93
1000.874	79.84
1001.036	-0.37
1001.199	91.66
1001.361	46.13
1001.524	54.07
1001.687	81.39
1001.849	25.59
1002.012	44.77
1002.174	46.9
1002.337	40.12
1002.499	42.64
1002.661	86.62
1002.824	9.12
1002.986	14.93
1003.149	48.84
1003.311	7.18
1003.473	102.31
1003.636	31.98
1003.798	70.15
1003.96	44.58
1004.123	58.72
1004.285	33.34
1004.447	21.91
1004.609	33.34
1004.771	97.08
1004.933	-0.95
1005.096	12.03
1005.258	8.54
1005.42	21.91
1005.582	85.07
1005.744	88.56
1005.906	6.99
1006.068	40.7
1006.23	-18.2
1006.392	-10.64
1006.554	26.75
1006.716	70.54
1006.878	54.07
1007.04	3.5
1007.202	34.5
1007.363	30.63
1007.525	25.78
1007.687	70.35
1007.849	62.21
1008.011	3.12
1008.172	-11.61
1008.334	20.55
1008.496	59.5
1008.658	2.53
1008.819	-4.25
1008.981	7.57
1009.143	0.79
1009.304	20.55
1009.466	63.95
1009.627	75.19
1009.789	149.2
1009.95	66.67
1010.112	31.6
1010.273	40.12
1010.435	30.05
1010.596	22.3
1010.758	32.76
1010.919	22.88
1011.081	-3.86
1011.242	51.94
1011.403	54.27
1011.565	37.6
1011.726	55.04
1011.887	-9.67
1012.049	31.79
1012.21	57.75
1012.371	91.66
1012.532	-45.9
1012.693	25.2
1012.855	-13.35
1013.016	48.07
1013.177	27.72
1013.338	31.98
1013.499	57.95
1013.66	79.45
1013.821	54.27
1013.982	24.43
1014.143	39.73
1014.304	7.18
1014.465	60.08
1014.626	65.5
1014.787	17.07
1014.948	125.37
1015.109	-43.19
1015.27	59.11
1015.431	27.33
1015.592	-5.99
1015.752	62.6
1015.913	30.24
1016.074	56.2
1016.235	23.07
1016.395	26.95
1016.556	22.88
1016.717	7.77
1016.877	81.58
1017.038	14.74
1017.199	58.53
1017.359	25.59
1017.52	5.44
1017.681	10.09
1017.841	22.1
1018.002	28.11
1018.162	2.73
1018.323	73.25
1018.483	1.57
1018.644	-4.63
1018.804	-43.38
1018.964	-9.09
1019.125	38.96
1019.285	38.18
1019.446	5.05
1019.606	19
1019.766	-40.09
1019.926	46.13
1020.087	57.17
1020.247	-5.8
1020.407	58.33
1020.567	42.06
1020.728	35.86
1020.888	21.72
1021.048	3.31
1021.208	-16.06
1021.368	-4.44
1021.528	62.79
1021.688	31.6
1021.848	37.41
1022.008	20.17
1022.168	1.76
1022.328	16.1
1022.488	29.08
1022.648	-11.22
1022.808	12.42
1022.968	48.45
1023.128	19.39
1023.288	15.32
1023.448	1.76
1023.608	16.68
1023.767	28.69
1023.927	-11.22
1024.087	7.96
1024.247	-37.96
1024.406	0.79
1024.566	-24.98
1024.726	12.22
1024.885	-0.37
1025.045	41.09
1025.205	0.21
1025.364	24.23
1025.524	17.26
1025.683	-4.44
1025.843	34.7
1026.003	7.18
1026.162	70.54
1026.321	79.45
1026.481	5.63
1026.64	-0.95
1026.8	24.04
1026.959	21.72
1027.119	20.36
1027.278	-2.7
1027.437	6.22
1027.597	6.99
1027.756	25.4
1027.915	21.91
1028.074	35.86
1028.234	-3.86
1028.393	18.81
1028.552	8.93
1028.711	-48.23
1028.87	55.82
1029.03	-15.48
1029.189	4.47
1029.348	-51.71
1029.507	-9.48
1029.666	8.93
1029.825	-30.98
1029.984	2.53
1030.143	20.55
1030.302	15.32
1030.461	-35.25
1030.62	19.97
1030.779	25.78
1030.938	7.96
1031.097	-30.6
1031.255	56.2
1031.414	59.3
1031.573	27.92
1031.732	-36.02
1031.891	-5.6
1032.049	50
1032.208	33.73
1032.367	-17.03
1032.525	-13.35
1032.684	-9.48
1032.843	19
1033.001	-43.38
1033.16	170.9
1033.319	54.27
1033.477	42.83
1033.636	4.08
1033.794	-31.37
1033.953	30.63
1034.111	13.97
1034.27	26.56
1034.428	31.79
1034.587	-14.32
1034.745	-2.7
1034.903	-6.96
1035.062	25.78
1035.22	-50.55
1035.378	19.78
1035.537	-40.48
1035.695	11.06
1035.853	-8.12
1036.011	52.33
1036.17	22.88
1036.328	-60.24
1036.486	14.35
1036.644	5.83
1036.802	-82.33
1036.96	-4.63
1037.119	4.28
1037.277	-14.9
1037.435	-32.15
1037.593	-18.2
1037.751	15.9
1037.909	40.9
1038.067	40.9
