Data from oakcork_FLMT105791__303__17-34-49-052.txt Node

Date: Mon Mar 20 17:34:49 GMT 2023
User: antho
Spectrometer: FLMT10579
Trigger mode: 0
Integration Time (sec): 1.000000E-1
Scans to average: 10
Electric dark correction enabled: true
Nonlinearity correction enabled: false
Boxcar width: 0
XAxis mode: Wavelengths
Number of Pixels in Spectrum: 3648
>>>>>Begin Spectral Data<<<<<
345.248	-170.34
345.464	-170.34
345.681	-170.34
345.898	-175.18
346.114	-174.4
346.331	-41.11
346.548	21.86
346.764	-34.71
346.981	-16.69
347.197	-1
347.414	9.27
347.631	-1.19
347.847	61.58
348.064	4.42
348.28	34.45
348.497	-52.15
348.713	15.27
348.93	17.4
349.146	12.17
349.363	-6.62
349.579	14.11
349.796	14.31
350.012	2.68
350.229	22.05
350.445	18.37
350.661	-28.51
350.878	-3.91
351.094	10.43
351.311	-3.52
351.527	-14.37
351.743	-19.21
351.96	33.1
352.176	29.03
352.392	29.22
352.609	37.94
352.825	-2.74
353.041	7.52
353.257	-0.03
353.474	12.56
353.69	9.46
353.906	12.17
354.122	-26.38
354.339	29.03
354.555	-16.31
354.771	-16.5
354.987	39.1
355.203	61.97
355.42	-4.29
355.636	-13.79
355.852	-3.13
356.068	-3.13
356.284	-67.26
356.5	25.54
356.716	-1.19
356.932	-4.49
357.148	33.49
357.364	-3.13
357.58	22.25
357.796	47.05
358.012	34.65
358.228	27.87
358.444	-59.13
358.66	33.29
358.876	21.67
359.092	-3.52
359.308	-6.23
359.524	16.63
359.74	14.5
359.956	-16.89
360.172	13.14
360.388	32.13
360.604	-7.59
360.819	62.55
361.035	40.07
361.251	14.5
361.467	-21.93
361.683	31.55
361.898	26.7
362.114	36.2
362.33	21.09
362.546	35.04
362.762	10.04
362.977	-7.39
363.193	-19.99
363.409	38.72
363.624	-6.04
363.84	-21.73
364.056	-14.56
364.271	22.25
364.487	15.85
364.703	-1.58
364.918	-41.69
365.134	9.66
365.35	15.66
365.565	80.95
365.781	25.93
365.996	26.51
366.212	73.01
366.427	22.25
366.643	-1.19
366.858	-22.7
367.074	-20.76
367.289	19.34
367.505	74.37
367.72	-27.16
367.936	7.14
368.151	42.4
368.367	22.83
368.582	20.89
368.798	-0.81
369.013	62.94
369.228	5.2
369.444	6.94
369.659	54.8
369.874	-1.39
370.09	48.02
370.305	-55.83
370.52	-16.5
370.736	38.91
370.951	-6.62
371.166	28.64
371.381	60.03
371.597	24.19
371.812	-28.51
372.027	2.1
372.242	-26.38
372.458	63.9
372.673	-20.57
372.888	13.92
373.103	37.36
373.318	96.84
373.533	6.56
373.749	28.64
373.964	-31.03
374.179	67.59
374.394	-6.81
374.609	56.74
374.824	-15.73
375.039	41.04
375.254	-2.16
375.469	68.17
375.684	27.67
375.899	46.47
376.114	41.04
376.329	19.34
376.544	60.03
376.759	41.43
376.974	-10.49
377.189	10.04
377.404	5.78
377.619	29.22
377.834	-33.36
378.049	-35.1
378.264	-41.3
378.478	22.05
378.693	-10.69
378.908	44.53
379.123	12.76
379.338	49.95
379.553	27.29
379.767	23.99
379.982	22.25
380.197	28.64
380.412	12.37
380.626	18.57
380.841	62.94
381.056	49.18
381.271	67.97
381.485	-1.39
381.7	-10.3
381.915	22.64
382.129	16.05
382.344	33.68
382.559	29.22
382.773	42.2
382.988	-28.51
383.202	46.27
383.417	4.81
383.632	99.94
383.846	31.16
384.061	7.33
384.275	12.37
384.49	31.16
384.704	29.42
384.919	25.93
385.133	10.62
385.348	37.94
385.562	-44.21
385.777	43.56
385.991	19.34
386.206	-7.59
386.42	-1.97
386.634	57.12
386.849	9.07
387.063	3.07
387.277	0.55
387.492	17.79
387.706	-8.17
387.92	7.52
388.135	35.62
388.349	21.28
388.563	30
388.778	23.99
388.992	34.26
389.206	40.46
389.42	92.39
389.635	25.35
389.849	47.05
390.063	62.94
390.277	22.25
390.491	67.59
390.706	42.01
390.92	34.84
391.134	22.83
391.348	44.92
391.562	-23.86
391.776	11.4
391.99	-12.63
392.205	73.59
392.419	13.34
392.633	16.05
392.847	60.61
393.061	-16.5
393.275	73.4
393.489	9.85
393.703	18.95
393.917	69.91
394.131	7.72
394.345	47.82
394.559	62.94
394.773	15.27
394.986	20.7
395.2	28.45
395.414	55.96
395.628	-12.04
395.842	23.22
396.056	4.62
396.27	-24.83
396.484	37.17
396.697	45.69
396.911	53.83
397.125	55.19
397.339	70.69
397.553	43.75
397.766	85.41
397.98	61.77
398.194	50.92
398.408	2.29
398.621	78.82
398.835	30.58
399.049	33.68
399.262	92.39
399.476	70.88
399.69	36.59
399.903	113.7
400.117	13.34
400.331	41.43
400.544	18.95
400.758	124.35
400.971	46.66
401.185	67.59
401.398	14.11
401.612	86.96
401.826	43.75
402.039	37.17
402.253	11.01
402.466	57.12
402.68	43.95
402.893	39.1
403.106	51.12
403.32	41.24
403.533	73.98
403.747	38.91
403.96	26.12
404.174	72.24
404.387	-15.14
404.6	33.87
404.814	44.92
405.027	46.85
405.24	19.34
405.454	51.12
405.667	79.79
405.88	3.46
406.094	47.24
406.307	85.41
406.52	75.92
406.733	12.37
406.947	7.91
407.16	96.84
407.373	86.77
407.586	3.84
407.799	-4.29
408.012	75.72
408.226	46.66
408.439	82.89
408.652	30
408.865	48.4
409.078	67.39
409.291	47.82
409.504	35.23
409.717	43.17
409.93	61.19
410.143	47.82
410.357	3.26
410.57	7.14
410.783	29.61
410.996	34.07
411.209	52.09
411.421	58.29
411.634	47.82
411.847	45.5
412.06	80.37
412.273	51.5
412.486	49.37
412.699	135.98
412.912	49.95
413.125	83.09
413.338	63.71
413.55	78.63
413.763	85.41
413.976	40.46
414.189	39.69
414.402	44.53
414.615	75.14
414.827	21.67
415.04	67.97
415.253	64.68
415.466	74.17
415.678	116.99
415.891	64.87
416.104	37.75
416.316	53.83
416.529	44.72
416.742	56.35
416.954	83.67
417.167	49.37
417.38	59.25
417.592	82.7
417.805	15.66
418.017	18.18
418.23	78.05
418.442	31.16
418.655	0.16
418.868	55.77
419.08	114.28
419.293	94.9
419.505	69.33
419.718	72.82
419.93	91.61
420.142	48.79
420.355	92.58
420.567	89.09
420.78	64.87
420.992	92
421.205	117.18
421.417	37.36
421.629	28.06
421.842	16.82
422.054	37.55
422.266	77.08
422.479	97.81
422.691	43.95
422.903	77.66
423.115	32.71
423.328	53.44
423.54	72.43
423.752	73.59
423.964	23.22
424.177	52.09
424.389	71.85
424.601	165.04
424.813	76.11
425.025	99.36
425.238	104.98
425.45	79.02
425.662	54.99
425.874	325.46
426.086	51.7
426.298	65.26
426.51	73.79
426.722	72.43
426.934	60.8
427.146	82.7
427.358	15.47
427.57	104.59
427.782	35.04
427.994	57.32
428.206	44.14
428.418	17.79
428.63	62.94
428.842	80.18
429.054	76.69
429.266	102.07
429.478	39.69
429.69	71.46
429.902	0.55
430.114	85.22
430.325	66.62
430.537	36.97
430.749	62.74
430.961	36.39
431.173	58.87
431.384	74.37
431.596	25.15
431.808	52.86
432.02	75.72
432.231	103.23
432.443	107.88
432.655	69.14
432.867	54.02
433.078	89.09
433.29	105.37
433.502	98.59
433.713	128.81
433.925	80.37
434.136	91.8
434.348	22.44
434.56	28.84
434.771	150.7
434.983	25.54
435.194	30.77
435.406	61.39
435.617	100.14
435.829	125.9
436.04	75.34
436.252	107.5
436.463	115.83
436.675	109.63
436.886	64.68
437.098	80.37
437.309	115.63
437.521	76.89
437.732	114.67
437.943	75.92
438.155	73.79
438.366	34.84
438.578	123.58
438.789	92.19
439	115.83
439.211	64.87
439.423	99.75
439.634	90.06
439.845	104.78
440.057	98.78
440.268	107.69
440.479	53.83
440.69	99.36
440.902	57.9
441.113	55.19
441.324	63.52
441.535	96.45
441.746	98.78
441.957	85.22
442.168	87.54
442.38	110.02
442.591	131.33
442.802	76.89
443.013	69.91
443.224	97.04
443.435	74.37
443.646	78.44
443.857	90.25
444.068	78.63
444.279	75.14
444.49	150.51
444.701	98.78
444.912	170.85
445.123	115.44
445.334	101.49
445.545	97.62
445.756	82.5
445.967	67.39
446.178	102.27
446.388	125.13
446.599	134.23
446.81	127.65
447.021	88.9
447.232	143.53
447.443	148.38
447.653	83.67
447.864	130.55
448.075	80.57
448.286	95.1
448.496	116.99
448.707	101.69
448.918	92.58
449.129	172.79
449.339	84.25
449.55	122.61
449.761	97.23
449.971	171.05
450.182	89.67
450.393	143.15
450.603	75.34
450.814	135.4
451.024	131.13
451.235	120.48
451.446	153.8
451.656	155.74
451.867	94.32
452.077	114.67
452.288	155.74
452.498	178.6
452.709	125.32
452.919	141.02
453.13	103.62
453.34	147.99
453.55	51.89
453.761	148.96
453.971	121.45
454.182	128.62
454.392	119.12
454.602	178.02
454.813	119.51
455.023	158.84
455.233	81.92
455.444	126.1
455.654	61.77
455.864	132.88
456.075	120.09
456.285	111.95
456.495	118.54
456.705	135.78
456.916	153.22
457.126	158.07
457.336	103.04
457.546	73.01
457.756	90.25
457.967	152.64
458.177	100.14
458.387	119.51
458.597	108.08
458.807	129.58
459.017	126.1
459.227	135.78
459.437	124.35
459.647	151.09
459.857	141.6
460.068	98.97
460.278	158.84
460.488	125.13
460.698	189.84
460.908	137.92
461.117	75.34
461.327	81.73
461.537	134.04
461.747	121.83
461.957	134.43
462.167	224.52
462.377	179.96
462.587	143.15
462.797	180.73
463.007	144.12
463.216	143.53
463.426	163.3
463.636	152.06
463.846	101.88
464.056	92.97
464.265	159.23
464.475	132.3
464.685	131.72
464.895	161.75
465.104	133.27
465.314	176.28
465.524	121.06
465.733	115.44
465.943	188.87
466.153	185
466.362	168.33
466.572	183.06
466.782	137.14
466.991	129.58
467.201	183.25
467.41	102.07
467.62	143.34
467.829	140.43
468.039	166.01
468.249	137.92
468.458	128.23
468.668	170.85
468.877	134.04
469.086	203.4
469.296	190.03
469.505	108.85
469.715	203.79
469.924	154.77
470.134	178.41
470.343	204.76
470.552	129.78
470.762	141.6
470.971	130.55
471.18	140.05
471.39	127.45
471.599	115.25
471.808	159.62
472.018	110.4
472.227	174.34
472.436	190.61
472.645	148.18
472.855	137.33
473.064	172.4
473.273	146.44
473.482	171.82
473.691	195.46
473.901	170.85
474.11	174.53
474.319	250.48
474.528	170.66
474.737	210.76
474.946	154.58
475.155	191
475.364	202.43
475.573	158.84
475.783	176.67
475.992	188.29
476.201	222.78
476.41	177.44
476.619	140.43
476.828	157.29
477.037	156.71
477.245	160
477.454	212.7
477.663	135.78
477.872	148.77
478.081	229.17
478.29	163.1
478.499	256.68
478.708	187.32
478.917	259.78
479.125	194.88
479.334	182.87
479.543	182.09
479.752	200.69
479.961	198.75
480.169	218.32
480.378	160.97
480.587	285.55
480.796	206.7
481.004	193.52
481.213	228.2
481.422	216.38
481.63	191.78
481.839	198.36
482.048	246.22
482.256	203.6
482.465	188.87
482.674	237.11
482.882	222.78
483.091	275.86
483.299	186.16
483.508	258.04
483.716	195.65
483.925	236.34
484.134	215.03
484.342	212.9
484.551	250.1
484.759	239.44
484.967	228.98
485.176	240.8
485.384	233.82
485.593	253.2
485.801	243.9
486.01	227.62
486.218	221.61
486.426	186.55
486.635	214.06
486.843	194.49
487.051	210.76
487.26	201.46
487.468	217.74
487.676	234.79
487.885	206.5
488.093	226.85
488.301	248.93
488.509	250.29
488.717	261.33
488.926	242.15
489.134	221.23
489.342	236.53
489.55	211.54
489.758	236.15
489.967	204.56
490.175	306.86
490.383	214.83
490.591	308.22
490.799	207.66
491.007	272.57
491.215	272.57
491.423	256.3
491.631	232.85
491.839	275.86
492.047	255.52
492.255	234.98
492.463	190.81
492.671	258.04
492.879	292.14
493.087	277.99
493.295	281.09
493.503	261.14
493.711	292.72
493.919	277.61
494.127	295.04
494.334	296.4
494.542	225.49
494.75	257.07
494.958	262.5
495.166	317.33
495.374	254.36
495.581	279.16
495.789	260.95
495.997	318.49
496.205	285.55
496.412	256.1
496.62	261.33
496.828	296.01
497.035	288.65
497.243	310.35
497.451	275.48
497.658	275.28
497.866	295.63
498.074	338.44
498.281	295.82
498.489	330.69
498.696	301.44
498.904	279.74
499.112	268.11
499.319	343.09
499.527	261.53
499.734	286.52
499.942	244.28
500.149	264.05
500.357	283.23
500.564	253.78
500.771	328.18
500.979	260.36
501.186	274.31
501.394	287.29
501.601	299.69
501.808	309.96
502.016	281.48
502.223	275.09
502.43	289.62
502.638	307.25
502.845	273.73
503.052	337.48
503.26	273.93
503.467	355.69
503.674	268.5
503.881	282.45
504.089	381.46
504.296	352.98
504.503	230.33
504.71	309.58
504.917	263.08
505.125	306.09
505.332	296.01
505.539	345.42
505.746	360.53
505.953	347.94
506.16	334.38
506.367	362.86
506.574	369.83
506.781	348.71
506.988	290.98
507.195	315
507.402	290.2
507.609	324.69
507.816	296.21
508.023	320.04
508.23	311.32
508.437	302.79
508.644	332.05
508.851	349.29
509.058	345.23
509.265	329.73
509.472	350.07
509.679	394.05
509.885	340.77
510.092	328.95
510.299	349.49
510.506	348.52
510.713	310.35
510.92	336.89
511.126	352.59
511.333	359.76
511.54	358.01
511.746	404.12
511.953	378.74
512.16	392.69
512.367	335.15
512.573	356.66
512.78	377.39
512.987	355.88
513.193	345.03
513.4	273.73
513.606	342.51
513.813	367.12
514.02	338.83
514.226	414.01
514.433	415.75
514.639	339.03
514.846	356.66
515.052	321.39
515.259	343.48
515.465	347.94
515.672	323.14
515.878	430.47
516.085	333.99
516.291	382.23
516.497	332.63
516.704	346.78
516.91	308.61
517.117	310.16
517.323	296.01
517.529	338.64
517.736	352.39
517.942	318.49
518.148	343.68
518.354	373.71
518.561	358.21
518.767	328.95
518.973	396.37
519.179	414.2
519.386	330.31
519.592	332.83
519.798	328.56
520.004	418.85
520.21	375.06
520.417	373.51
520.623	431.44
520.829	426.99
521.035	401.8
521.241	415.56
521.447	458.95
521.653	470.58
521.859	410.13
522.065	420.01
522.271	495.38
522.477	431.83
522.683	457.02
522.889	429.12
523.095	469.22
523.301	412.84
523.507	414.59
523.713	474.26
523.919	397.15
524.125	456.24
524.331	415.56
524.537	478.14
524.742	440.36
524.948	461.67
525.154	443.65
525.36	566.29
525.566	463.99
525.772	510.1
525.977	413.04
526.183	468.45
526.389	493.05
526.595	463.8
526.8	444.23
527.006	436.48
527.212	448.69
527.417	403.54
527.623	416.14
527.829	440.36
528.034	456.82
528.24	442.68
528.446	429.31
528.651	516.5
528.857	482.79
529.062	523.28
529.268	486.47
529.473	502.35
529.679	467.09
529.884	540.33
530.09	500.42
530.295	537.81
530.501	511.07
530.706	509.14
530.912	460.89
531.117	511.65
531.323	494.02
531.528	517.47
531.733	531.03
531.939	491.5
532.144	502.55
532.35	495.57
532.555	519.6
532.76	538.59
532.966	546.72
533.171	496.15
533.376	476.97
533.581	494.02
533.787	511.85
533.992	542.07
534.197	558.15
534.402	489.57
534.607	522.5
534.813	594.38
535.018	507.59
535.223	501.39
535.428	550.21
535.633	552.15
535.838	524.44
536.043	548.47
536.249	581.79
536.454	525.41
536.659	559.12
536.864	537.04
537.069	532.77
537.274	564.74
537.479	546.53
537.684	580.05
537.889	499.64
538.094	620.93
538.299	552.53
538.504	569.39
538.708	535.87
538.913	561.06
539.118	575.78
539.323	547.5
539.528	535.87
539.733	542.07
539.938	558.93
540.142	598.45
540.347	546.33
540.552	524.64
540.757	579.66
540.962	534.71
541.166	505.26
541.371	515.34
541.576	546.92
541.781	460.7
541.985	562.61
542.19	557.77
542.395	565.9
542.599	625.97
542.804	582.57
543.008	618.22
543.213	534.32
543.418	568.62
543.622	584.31
543.827	520.57
544.031	605.43
544.236	614.34
544.44	555.63
544.645	648.25
544.849	548.08
545.054	608.33
545.258	657.93
545.463	603.88
545.667	537.23
545.872	570.17
546.076	593.61
546.281	582.18
546.485	559.7
546.689	613.95
546.894	611.43
547.098	566.48
547.302	556.6
547.507	562.03
547.711	619.18
547.915	641.08
548.119	557.18
548.324	570.36
548.528	618.22
548.732	582.76
548.936	607.56
549.141	602.52
549.345	557.38
549.549	588.77
549.753	575.98
549.957	657.74
550.161	656
550.366	594.77
550.57	576.17
550.774	603.1
550.978	592.25
551.182	612.21
551.386	560.67
551.59	594.38
551.794	588.38
551.998	590.51
552.202	586.05
552.406	538.39
552.61	589.73
552.814	580.63
553.018	655.03
553.222	592.25
553.426	578.3
553.63	634.3
553.833	588.96
554.037	566.48
554.241	618.41
554.445	568.62
554.649	576.56
554.853	584.7
555.056	604.85
555.26	649.02
555.464	601.75
555.668	616.67
555.871	633.91
556.075	631.2
556.279	554.86
556.483	548.08
556.686	586.25
556.89	603.88
557.094	632.16
557.297	544.59
557.501	631
557.704	573.85
557.908	618.22
558.112	575.01
558.315	633.91
558.519	605.62
558.722	594.58
558.926	565.71
559.129	526.38
559.333	521.34
559.536	559.12
559.74	557.38
559.943	541.49
560.147	532.39
560.35	564.74
560.553	561.64
560.757	489.76
560.96	595.16
561.164	514.75
561.367	617.25
561.57	553.89
561.774	533.94
561.977	538.78
562.18	552.92
562.384	603.88
562.587	533.94
562.79	538.78
562.993	545.95
563.197	569.2
563.4	620.93
563.603	595.16
563.806	637.2
564.009	541.1
564.212	559.7
564.416	511.27
564.619	574.04
564.822	504.29
565.025	589.15
565.228	519.79
565.431	540.52
565.634	447.33
565.837	515.92
566.04	492.47
566.243	524.64
566.446	463.02
566.649	549.43
566.852	468.84
567.055	515.72
567.258	552.53
567.461	594.77
567.664	544.59
567.867	457.79
568.07	537.62
568.273	522.7
568.475	551.18
568.678	502.94
568.881	520.18
569.084	525.22
569.287	440.36
569.489	474.07
569.692	517.08
569.895	516.5
570.098	474.45
570.3	456.24
570.503	428.73
570.706	464.96
570.909	482.4
571.111	427.18
571.314	437.64
571.516	471.35
571.719	477.55
571.922	451.98
572.124	442.1
572.327	445.2
572.529	397.54
572.732	418.46
572.935	457.79
573.137	490.92
573.34	437.84
573.542	441.13
573.745	474.65
573.947	453.92
574.15	466.32
574.352	449.07
574.554	522.12
574.757	415.94
574.959	422.72
575.162	426.21
575.364	449.85
575.566	519.02
575.769	417.3
575.971	428.92
576.173	370.22
576.376	440.74
576.578	456.05
576.78	479.3
576.982	375.06
577.185	432.61
577.387	375.06
577.589	373.32
577.791	422.53
577.993	450.43
578.196	428.73
578.398	430.09
578.6	466.7
578.802	383.01
579.004	358.59
579.206	406.64
579.408	452.75
579.61	421.17
579.812	434.74
580.014	405.67
580.216	393.47
580.418	391.14
580.62	407.81
580.822	369.25
581.024	364.41
581.226	430.47
581.428	390.95
581.63	464.19
581.832	407.42
582.034	437.45
582.236	417.49
582.438	450.24
582.64	428.73
582.841	442.1
583.043	469.42
583.245	434.54
583.447	436.67
583.649	404.32
583.85	420.59
584.052	456.05
584.254	410.71
584.456	430.47
584.657	360.73
584.859	400.64
585.061	405.67
585.262	400.25
585.464	370.22
585.666	426.6
585.867	361.69
586.069	461.47
586.27	440.16
586.472	391.92
586.674	379.32
586.875	383.59
587.077	389.79
587.278	417.3
587.48	388.62
587.681	503.13
587.883	379.91
588.084	372.54
588.285	385.33
588.487	388.43
588.688	389.01
588.89	351.04
589.091	349.68
589.292	401.61
589.494	336.89
589.695	382.62
589.896	333.21
590.098	294.66
590.299	401.41
590.5	307.25
590.702	326.04
590.903	358.59
591.104	398.51
591.305	355.88
591.507	434.74
591.708	380.68
591.909	340.77
592.11	445.2
592.311	418.85
592.512	369.25
592.714	337.67
592.915	341.16
593.116	346
593.317	367.31
593.518	370.22
593.719	367.31
593.92	396.37
594.121	391.92
594.322	358.01
594.523	356.66
594.724	335.93
594.925	355.88
595.126	389.21
595.327	386.69
595.528	352.59
595.729	364.41
595.929	343.68
596.13	393.08
596.331	361.31
596.532	358.98
596.733	415.75
596.934	385.91
597.135	393.66
597.335	368.86
597.536	328.76
597.737	379.71
597.938	318.29
598.138	350.07
598.339	333.41
598.54	390.37
598.74	370.61
598.941	402.57
599.142	383.97
599.342	367.31
599.543	342.71
599.744	341.93
599.944	323.91
600.145	335.73
600.345	372.93
600.546	399.09
600.746	422.53
600.947	444.81
601.147	388.62
601.348	398.31
601.548	367.7
601.749	375.64
601.949	347.55
602.15	334.96
602.35	352.98
602.551	398.12
602.751	318.49
602.951	353.17
603.152	291.94
603.352	377
603.552	363.05
603.753	399.09
603.953	364.21
604.153	363.05
604.354	367.89
604.554	333.79
604.754	356.27
604.954	320.62
605.155	375.64
605.355	316.16
605.555	395.79
605.755	383.2
605.955	371.77
606.155	394.44
606.356	369.06
606.556	370.02
606.756	406.45
606.956	300.28
607.156	433.96
607.356	305.31
607.556	353.17
607.756	349.29
607.956	392.89
608.156	372.35
608.356	326.82
608.556	354.72
608.756	358.4
608.956	308.03
609.156	363.05
609.356	330.31
609.556	331.47
609.755	354.14
609.955	345.42
610.155	371.19
610.355	351.43
610.555	327.79
610.755	352.98
610.954	314.23
611.154	353.56
611.354	378.94
611.554	339.99
611.753	304.34
611.953	301.44
612.153	372.74
612.352	354.33
612.552	309.58
612.752	271.02
612.951	323.14
613.151	356.27
613.351	311.9
613.55	310.74
613.75	328.95
613.949	340.96
614.149	323.33
614.348	338.44
614.548	293.3
614.747	274.9
614.947	308.03
615.146	249.32
615.346	334.57
615.545	339.03
615.745	343.09
615.944	359.56
616.144	330.69
616.343	361.31
616.542	310.74
616.742	305.51
616.941	310.93
617.14	266.18
617.34	316.55
617.539	311.13
617.738	312.68
617.938	381.07
618.137	317.71
618.336	252.81
618.535	333.99
618.734	318.49
618.934	322.56
619.133	305.51
619.332	335.54
619.531	282.45
619.73	274.9
619.929	332.63
620.128	295.82
620.328	359.18
620.527	285.16
620.726	297.76
620.925	303.96
621.124	301.63
621.323	322.56
621.522	284.19
621.721	279.35
621.92	258.04
622.119	319.84
622.318	318.49
622.517	322.94
622.715	284
622.914	222
623.113	295.04
623.312	250.87
623.511	288.26
623.71	272.57
623.909	284.78
624.107	318.68
624.306	262.69
624.505	268.11
624.704	269.66
624.902	242.15
625.101	309.77
625.3	297.18
625.499	291.36
625.697	290.01
625.896	250.1
626.095	300.28
626.293	254.55
626.492	263.27
626.69	293.88
626.889	268.5
627.088	303.38
627.286	229.17
627.485	248.93
627.683	242.93
627.882	253.58
628.08	234.98
628.279	265.4
628.477	333.99
628.676	247.96
628.874	310.54
629.073	269.28
629.271	239.25
629.469	290.98
629.668	282.26
629.866	259.78
630.065	261.72
630.263	297.95
630.461	233.82
630.66	263.08
630.858	307.06
631.056	337.86
631.254	288.07
631.453	240.99
631.651	287.29
631.849	272.38
632.047	296.98
632.245	263.66
632.444	269.86
632.642	279.54
632.84	290.2
633.038	280.9
633.236	234.79
633.434	220.26
633.632	230.53
633.83	227.04
634.028	294.08
634.227	297.37
634.425	339.8
634.623	266.95
634.821	287.29
635.019	270.05
635.216	264.63
635.414	289.43
635.612	258.04
635.81	266.18
636.008	300.66
636.206	239.44
636.404	287.88
636.602	240.02
636.8	248.35
636.997	274.51
637.195	278.96
637.393	267.73
637.591	294.85
637.789	262.3
637.986	263.27
638.184	255.13
638.382	282.06
638.58	285.55
638.777	307.44
638.975	259.4
639.173	293.49
639.37	262.5
639.568	279.16
639.765	279.74
639.963	255.13
640.161	300.47
640.358	293.11
640.556	248.93
640.753	247.77
640.951	237.89
641.148	280.32
641.346	248.74
641.543	251.06
641.741	290.78
641.938	244.48
642.136	266.37
642.333	215.41
642.531	301.05
642.728	296.59
642.925	254.55
643.123	252.81
643.32	263.08
643.517	243.7
643.715	284.58
643.912	234.98
644.109	274.7
644.306	265.21
644.504	226.85
644.701	240.21
644.898	292.72
645.095	236.53
645.293	244.86
645.49	289.62
645.687	272.38
645.884	269.47
646.081	224.91
646.278	230.72
646.475	229.75
646.672	240.21
646.87	277.99
647.067	267.15
647.264	259.4
647.461	210.76
647.658	233.24
647.855	247.77
648.052	233.43
648.249	190.23
648.446	238.47
648.642	198.17
648.839	219.87
649.036	216.77
649.233	170.27
649.43	191.58
649.627	171.43
649.824	220.26
650.021	192.16
650.217	210.38
650.414	185.77
650.611	242.54
650.808	239.83
651.004	247.19
651.201	220.26
651.398	292.14
651.595	232.08
651.791	196.04
651.988	227.81
652.185	230.72
652.381	240.99
652.578	190.81
652.775	216
652.971	206.31
653.168	219.68
653.364	220.26
653.561	170.27
653.757	188.1
653.954	223.75
654.15	195.07
654.347	270.05
654.543	221.61
654.74	149.73
654.936	172.98
655.133	204.76
655.329	225.88
655.525	221.61
655.722	264.05
655.918	176.47
656.115	240.99
656.311	191.97
656.507	166.98
656.704	140.43
656.9	187.9
657.096	144.7
657.292	172.4
657.489	227.81
657.685	189.26
657.881	173.76
658.077	180.15
658.273	191.58
658.47	268.31
658.666	187.52
658.862	228.98
659.058	164.46
659.254	237.5
659.45	175.5
659.646	204.95
659.842	211.93
660.038	232.66
660.234	162.33
660.43	181.9
660.626	281.09
660.822	223.94
661.018	244.48
661.214	196.04
661.41	173.57
661.606	203.79
661.802	235.37
661.998	222.97
662.194	192.94
662.39	234.98
662.586	202.43
662.781	190.81
662.977	222.2
663.173	218.51
663.369	193.13
663.564	231.88
663.76	248.16
663.956	197.98
664.152	221.42
664.347	176.28
664.543	193.52
664.739	192.55
664.934	144.31
665.13	155.16
665.326	218.9
665.521	205.34
665.717	190.03
665.912	162.91
666.108	130.17
666.304	187.9
666.499	201.66
666.695	145.86
666.89	194.3
667.086	221.23
667.281	216.38
667.477	256.49
667.672	202.82
667.867	190.81
668.063	240.6
668.258	168.92
668.454	189.65
668.649	232.08
668.844	206.11
669.04	197.59
669.235	169.69
669.43	168.72
669.626	143.92
669.821	175.5
670.016	173.76
670.211	192.94
670.407	134.23
670.602	177.83
670.797	180.73
670.992	186.35
671.187	166.98
671.382	202.63
671.578	197.01
671.773	185.97
671.968	177.44
672.163	192.75
672.358	203.98
672.553	160.78
672.748	147.41
672.943	231.88
673.138	201.66
673.333	195.26
673.528	135.4
673.723	180.93
673.918	155.35
674.113	158.65
674.308	252.03
674.503	208.83
674.698	208.05
674.892	193.33
675.087	206.11
675.282	213.48
675.477	174.53
675.672	175.12
675.867	172.4
676.061	131.91
676.256	157.48
676.451	145.86
676.646	198.36
676.84	137.33
677.035	124.16
677.23	153.22
677.424	177.44
677.619	191.39
677.814	222.97
678.008	205.73
678.203	145.86
678.397	133.07
678.592	171.63
678.787	225.68
678.981	187.9
679.176	182.48
679.37	197.01
679.565	142.76
679.759	148.77
679.954	186.93
680.148	249.32
680.342	199.72
680.537	205.34
680.731	172.79
680.926	172.4
681.12	216.77
681.314	166.4
681.509	182.48
681.703	179.38
681.897	192.55
682.092	166.01
682.286	157.87
682.48	230.53
682.674	209.41
682.869	169.11
683.063	165.23
683.257	204.56
683.451	154
683.645	199.33
683.839	196.43
684.034	155.93
684.228	194.68
684.422	169.11
684.616	160
684.81	201.08
685.004	174.34
685.198	177.05
685.392	191.78
685.586	158.07
685.78	180.73
685.974	186.74
686.168	169.3
686.362	236.34
686.556	168.53
686.75	153.61
686.944	160.58
687.138	177.63
687.331	110.79
687.525	173.95
687.719	130.36
687.913	145.08
688.107	175.31
688.301	136.56
688.494	192.36
688.688	149.93
688.882	124.74
689.076	137.53
689.269	156.13
689.463	198.56
689.657	157.1
689.85	142.76
690.044	130.55
690.238	152.06
690.431	159.81
690.625	160.39
690.818	157.1
691.012	146.44
691.205	176.28
691.399	115.44
691.593	167.75
691.786	211.54
691.98	189.26
692.173	215.03
692.366	170.47
692.56	190.42
692.753	220.65
692.947	178.99
693.14	233.63
693.333	193.71
693.527	157.1
693.72	183.64
693.914	194.1
694.107	188.68
694.3	187.52
694.493	165.62
694.687	248.93
694.88	181.12
695.073	228.4
695.266	217.74
695.46	208.63
695.653	228.2
695.846	248.55
696.039	149.73
696.232	180.15
696.425	203.21
696.618	205.53
696.812	180.73
697.005	261.91
697.198	315.58
697.391	240.99
697.584	220.84
697.777	287.49
697.97	284.19
698.163	268.7
698.356	275.48
698.549	331.47
698.742	271.21
698.935	267.73
699.127	259.59
699.32	266.76
699.513	255.71
699.706	287.29
699.899	278.19
700.092	288.65
700.285	281.09
700.477	242.73
700.67	291.94
700.863	292.33
701.056	365.76
701.248	349.88
701.441	321.01
701.634	300.66
701.826	384.94
702.019	297.56
702.212	356.46
702.404	300.28
702.597	281.48
702.79	325.27
702.982	329.73
703.175	356.27
703.367	375.06
703.56	373.9
703.752	437.26
703.945	390.95
704.137	382.04
704.33	397.34
704.522	415.94
704.715	397.15
704.907	394.44
705.1	441.91
705.292	426.6
705.484	423.89
705.677	424.47
705.869	453.53
706.061	426.21
706.254	488.21
706.446	414.01
706.638	438.61
706.831	509.14
707.023	462.64
707.215	510.1
707.407	504.29
707.599	492.09
707.792	542.27
707.984	512.04
708.176	539.94
708.368	483.37
708.56	546.92
708.752	489.76
708.944	498.87
709.136	528.9
709.329	521.73
709.521	617.83
709.713	587.22
709.905	563.19
710.097	586.63
710.289	552.73
710.481	567.65
710.672	579.47
710.864	561.25
711.056	632.16
711.248	628.48
711.44	619.96
711.632	587.41
711.824	621.32
712.016	682.15
712.207	644.56
712.399	643.98
712.591	704.63
712.783	694.16
712.975	690.87
713.166	625.97
713.358	688.55
713.55	697.46
713.741	706.56
713.933	700.95
714.125	699.59
714.316	685.83
714.508	741.83
714.7	737.37
714.891	727.68
715.083	797.63
715.274	719.93
715.466	733.49
715.657	743.96
715.849	681.96
716.04	740.47
716.232	721.09
716.423	764.11
716.615	739.69
716.806	713.93
716.998	723.61
717.189	681.76
717.381	645.34
717.572	616.86
717.763	682.54
717.955	679.05
718.146	617.44
718.337	642.82
718.528	600.58
718.72	549.43
718.911	650.57
719.102	589.54
719.293	641.85
719.485	629.84
719.676	619.77
719.867	594.38
720.058	591.48
720.249	633.71
720.44	624.03
720.632	638.36
720.823	706.56
721.014	751.71
721.205	742.41
721.396	743.18
721.587	814.29
721.778	799.37
721.969	809.25
722.16	853.04
722.351	822.23
722.542	912.9
722.733	909.03
722.924	829.59
723.115	889.46
723.305	895.47
723.496	902.05
723.687	845.48
723.878	870.47
724.069	844.32
724.26	884.42
724.45	817.39
724.641	795.49
724.832	857.3
725.023	866.99
725.213	850.91
725.404	842.38
725.595	855.94
725.785	843.54
725.976	884.04
726.167	881.91
726.357	863.89
726.548	944.1
726.739	916.39
726.929	965.6
727.12	951.85
727.31	986.92
727.501	943.71
727.691	946.81
727.882	935.38
728.072	989.63
728.263	982.85
728.453	1009
728.644	973.94
728.834	977.42
729.024	983.62
729.215	977.42
729.405	963.86
729.596	1067.51
729.786	1056.67
729.976	1035.55
730.167	1098.13
730.357	1021.21
730.547	1050.08
730.737	1108.78
730.928	1109.95
731.118	1156.25
731.308	1058.02
731.498	1094.83
731.688	1167.49
731.879	1132.81
732.069	1174.66
732.259	1174.85
732.449	1182.41
732.639	1254.87
732.829	1290.71
733.019	1280.44
733.209	1308.92
733.399	1322.29
733.589	1354.07
733.779	1348.06
733.969	1344.57
734.159	1384.68
734.349	1400.18
734.539	1473.61
734.729	1424.01
734.919	1459.66
735.109	1471.09
735.299	1424.98
735.488	1474.19
735.678	1475.35
735.868	1453.27
736.058	1473.8
736.248	1501.7
736.437	1431.18
736.627	1461.02
736.817	1548.59
737.007	1511.78
737.196	1540.84
737.386	1491.05
737.576	1492.21
737.765	1527.28
737.955	1514.88
738.144	1610.01
738.334	1565.64
738.524	1559.25
738.713	1574.94
738.903	1579.4
739.092	1581.72
739.282	1570.1
739.471	1598.77
739.661	1573.2
739.85	1595.86
740.04	1599.35
740.229	1648.18
740.419	1644.3
740.608	1698.94
740.797	1686.54
740.987	1669.49
741.176	1705.14
741.365	1658.64
741.555	1644.49
741.744	1735.56
741.933	1673.36
742.123	1722.38
742.312	1745.44
742.501	1725.67
742.69	1740.21
742.88	1708.04
743.069	1776.24
743.258	1712.11
743.447	1768.88
743.636	1758.61
743.825	1751.25
744.014	1735.17
744.204	1770.04
744.393	1735.94
744.582	1776.05
744.771	1776.05
744.96	1780.31
745.149	1791.94
745.338	1776.05
745.527	1781.86
745.716	1782.83
745.905	1727.81
746.094	1805.11
746.283	1845.02
746.471	1789.42
746.66	1863.23
746.849	1830.3
747.038	1852.97
747.227	1800.65
747.416	1799.1
747.604	1807.44
747.793	1807.24
747.982	1820.61
748.171	1829.14
748.359	1866.14
748.548	1839.4
748.737	1811.5
748.926	1785.15
749.114	1742.14
749.303	1802.01
749.491	1807.44
749.68	1755.9
749.869	1835.92
750.057	1767.72
750.246	1805.5
750.434	1809.95
750.623	1806.27
750.811	1794.26
751	1864.01
751.188	1793.1
751.377	1831.27
751.565	1809.95
751.754	1806.85
751.942	1762.87
752.131	1848.7
752.319	1767.14
752.507	1758.61
752.696	1794.45
752.884	1826.62
753.072	1791.94
753.261	1822.16
753.449	1784.77
753.637	1781.28
753.825	1851.03
754.014	1790.97
754.202	1815.77
754.39	1843.09
754.578	1829.91
754.766	1805.3
754.955	1764.42
755.143	1832.82
755.331	1793.87
755.519	1785.15
755.707	1803.75
755.895	1774.69
756.083	1813.44
756.271	1742.72
756.459	1763.07
756.647	1792.71
756.835	1779.15
757.023	1765
757.211	1769.07
757.399	1761.91
757.587	1754.35
757.775	1744.86
757.963	1739.43
758.151	1738.46
758.339	1715.99
758.526	1712.31
758.714	1758.03
758.902	1680.34
759.09	1620.28
759.278	1525.15
759.465	1431.76
759.653	1193.84
759.841	1111.88
760.028	911.74
760.216	826.3
760.404	783.87
760.591	625.58
760.779	528.12
760.967	460.89
761.154	363.63
761.342	398.51
761.529	408.77
761.717	428.92
761.905	401.41
762.092	471.74
762.28	378.74
762.467	415.36
762.655	368.67
762.842	385.91
763.029	408.97
763.217	395.21
763.404	407.42
763.592	434.35
763.779	364.99
763.966	404.9
764.154	432.61
764.341	473.87
764.528	500.22
764.716	496.74
764.903	538.59
765.09	547.5
765.277	579.47
765.465	693.58
765.652	728.46
765.839	731.56
766.026	828.04
766.213	848.58
766.4	872.61
766.588	1006.48
766.775	987.5
766.962	1042.72
767.149	1087.66
767.336	1177.18
767.523	1155.86
767.71	1236.08
767.897	1261.46
768.084	1358.91
768.271	1339.54
768.458	1386.62
768.645	1421.49
768.832	1387.59
769.019	1399.79
769.206	1452.1
769.392	1492.98
769.579	1560.6
769.766	1492.02
769.953	1510.03
770.14	1560.21
770.327	1534.25
770.513	1534.64
770.7	1617.37
770.887	1519.72
771.073	1576.1
771.26	1587.53
771.447	1552.66
771.634	1526.89
771.82	1663.29
772.007	1506.93
772.193	1591.21
772.38	1620.28
772.567	1552.85
772.753	1597.99
772.94	1616.01
773.126	1604.78
773.313	1622.99
773.499	1599.74
773.686	1620.66
773.872	1547.43
774.059	1579.98
774.245	1544.71
774.432	1550.14
774.618	1506.93
774.804	1580.56
774.991	1539.48
775.177	1559.83
775.363	1545.88
775.55	1586.18
775.736	1540.84
775.922	1529.8
776.109	1547.04
776.295	1549.75
776.481	1552.46
776.667	1597.22
776.853	1544.13
777.04	1524.95
777.226	1548.98
777.412	1604.19
777.598	1544.33
777.784	1508.68
777.97	1517.59
778.156	1548.2
778.342	1509.45
778.528	1540.45
778.715	1465.86
778.901	1508.1
779.087	1484.85
779.272	1501.51
779.458	1490.27
779.644	1508.48
779.83	1478.84
780.016	1551.88
780.202	1485.04
780.388	1451.33
780.574	1410.45
780.76	1452.68
780.946	1475.55
781.131	1463.34
781.317	1469.35
781.503	1438.93
781.689	1465.28
781.874	1545.1
782.06	1465.86
782.246	1447.07
782.432	1431.95
782.617	1476.13
782.803	1516.62
782.989	1390.3
783.174	1477.1
783.36	1406.38
783.545	1409.09
783.731	1419.17
783.916	1400.37
784.102	1440.87
784.288	1417.42
784.473	1433.12
784.659	1392.82
784.844	1437.18
785.029	1363.95
785.215	1352.71
785.4	1338.18
785.586	1424.78
785.771	1369.95
785.956	1436.41
786.142	1397.66
786.327	1338.57
786.512	1354.45
786.698	1371.7
786.883	1380.61
787.068	1344.19
787.254	1340.7
787.439	1337.99
787.624	1343.02
787.809	1345.35
787.994	1343.8
788.18	1376.93
788.365	1294.59
788.55	1331.79
788.735	1337.02
788.92	1315.32
789.105	1327.52
789.29	1303.11
789.475	1293.42
789.66	1284.32
789.845	1268.62
790.03	1261.26
790.215	1309.12
790.4	1277.73
790.585	1332.17
790.77	1269.59
790.955	1198.1
791.14	1260.87
791.325	1331.98
791.51	1206.04
791.695	1255.26
791.879	1266.49
792.064	1212.24
792.249	1296.52
792.434	1258.74
792.618	1226.97
792.803	1306.02
792.988	1253.12
793.173	1251.77
793.357	1279.09
793.542	1191.51
793.727	1269.79
793.911	1291.68
794.096	1265.33
794.281	1306.79
794.465	1327.91
794.65	1244.79
794.834	1281.99
795.019	1346.9
795.203	1279.67
795.388	1304.86
795.572	1307.76
795.757	1278.31
795.941	1306.79
796.126	1272.69
796.31	1225.23
796.494	1257.19
796.679	1282.77
796.863	1244.21
797.048	1305.05
797.232	1288.58
797.416	1293.81
797.601	1233.94
797.785	1340.7
797.969	1305.82
798.153	1260.49
798.338	1270.95
798.522	1310.09
798.706	1288.97
798.89	1327.33
799.074	1374.6
799.258	1344.38
799.443	1291.29
799.627	1283.16
799.811	1311.25
799.995	1279.28
800.179	1290.71
800.363	1262.23
800.547	1314.93
800.731	1308.34
800.915	1246.73
801.099	1265.52
801.283	1282.38
801.467	1277.34
801.651	1275.99
801.835	1326.75
802.019	1288.97
802.202	1281.41
802.386	1259.52
802.57	1260.68
802.754	1257.39
802.938	1236.08
803.121	1232.98
803.305	1323.46
803.489	1265.72
803.673	1281.22
803.856	1270.56
804.04	1269.59
804.224	1292.65
804.407	1265.52
804.591	1261.46
804.775	1239.56
804.958	1277.73
805.142	1382.16
805.326	1268.04
805.509	1307.96
805.693	1338.18
805.876	1310.47
806.06	1267.66
806.243	1304.47
806.427	1337.21
806.61	1320.74
806.794	1268.43
806.977	1310.47
807.16	1286.84
807.344	1296.14
807.527	1334.5
807.71	1285.67
807.894	1273.27
808.077	1324.23
808.26	1257
808.444	1225.03
808.627	1297.88
808.81	1244.41
808.993	1245.37
809.177	1226
809.36	1262.04
809.543	1299.04
809.726	1187.25
809.909	1182.6
810.092	1197.52
810.276	1202.17
810.459	1233.17
810.642	1212.63
810.825	1159.16
811.008	1194.42
811.191	1133
811.374	1110.91
811.557	1144.05
811.74	1191.71
811.923	1085.15
812.106	1112.46
812.289	1058.41
812.472	1093.86
812.654	1103.36
812.837	1107.81
813.02	1061.7
813.203	1043.1
813.386	955.53
813.569	970.25
813.751	961.15
813.934	971.22
814.117	987.11
814.3	956.3
814.482	899.34
814.665	926.27
814.848	879.39
815.03	846.06
815.213	855.17
815.396	890.82
815.578	821.65
815.761	820.68
815.943	886.94
816.126	817.97
816.309	812.74
816.491	764.11
816.674	720.32
816.856	735.04
817.039	772.44
817.221	809.83
817.403	789.88
817.586	794.91
817.768	812.93
817.951	746.67
818.133	743.57
818.315	737.37
818.498	762.17
818.68	837.92
818.862	794.72
819.045	808.28
819.227	791.23
819.409	799.37
819.591	803.44
819.774	794.91
819.956	760.43
820.138	854.01
820.32	797.04
820.502	849.94
820.684	868.15
820.866	871.44
821.048	922.59
821.231	908.45
821.413	909.03
821.595	888.69
821.777	906.12
821.959	858.66
822.141	955.14
822.323	830.17
822.505	817.77
822.686	800.14
822.868	757.71
823.05	718.96
823.232	733.49
823.414	662.39
823.596	688.16
823.778	678.08
823.96	728.84
824.141	698.23
824.323	684.67
824.505	769.34
824.687	788.52
824.868	824.36
825.05	852.84
825.232	864.66
825.413	931.31
825.595	893.14
825.777	850.71
825.958	885.59
826.14	855.17
826.321	863.89
826.503	860.98
826.685	865.05
826.866	893.34
827.048	873.96
827.229	847.22
827.411	827.85
827.592	786.97
827.773	793.36
827.955	803.24
828.136	794.14
828.318	754.61
828.499	804.79
828.68	755.39
828.862	757.13
829.043	801.31
829.224	800.14
829.406	746.86
829.587	809.64
829.768	759.65
829.949	799.56
830.131	787.94
830.312	844.9
830.493	765.66
830.674	802.86
830.855	768.95
831.036	744.34
831.218	792.98
831.399	848
831.58	783.87
831.761	793.36
831.942	802.86
832.123	767.59
832.304	736.01
832.485	773.21
832.666	774.76
832.847	772.63
833.028	772.05
833.209	779.61
833.389	755.19
833.57	763.72
833.751	758.68
833.932	806.92
834.113	782.51
834.294	765.46
834.475	804.79
834.655	827.27
834.836	799.56
835.017	799.18
835.198	736.59
835.378	802.27
835.559	818.94
835.74	786
835.92	755.97
836.101	764.69
836.281	813.51
836.462	795.49
836.643	847.81
836.823	835.02
837.004	804.99
837.184	872.61
837.365	817.39
837.545	869.89
837.726	809.25
837.906	863.69
838.087	824.94
838.267	817.19
838.448	784.64
838.628	787.74
838.808	832.11
838.989	901.28
839.169	780.19
839.349	846.45
839.53	847.22
839.71	858.27
839.89	804.41
840.07	877.45
840.251	807.31
840.431	856.52
840.611	827.27
840.791	786.97
840.971	840.83
841.151	795.3
841.332	785.81
841.512	807.89
841.692	769.53
841.872	827.66
842.052	832.11
842.232	820.29
842.412	753.06
842.592	820.1
842.772	816.81
842.952	846.84
843.132	776.12
843.312	807.7
843.492	734.27
843.672	789.29
843.851	753.64
844.031	811.96
844.211	792.39
844.391	761.39
844.571	787.36
844.751	812.93
844.93	833.86
845.11	788.52
845.29	814.67
845.47	814.29
845.649	807.12
845.829	819.32
846.009	751.71
846.188	793.75
846.368	826.49
846.547	788.71
846.727	794.91
846.907	754.23
847.086	800.92
847.266	831.53
847.445	792.01
847.625	782.13
847.804	778.44
847.984	774.57
848.163	748.41
848.343	764.69
848.522	778.44
848.701	782.13
848.881	723.23
849.06	741.83
849.239	776.12
849.419	795.11
849.598	731.75
849.777	742.6
849.957	731.56
850.136	709.86
850.315	675.37
850.494	703.27
850.674	680.21
850.853	764.49
851.032	693.58
851.211	780.77
851.39	744.34
851.569	672.66
851.748	690.68
851.927	715.86
852.107	737.95
852.286	707.15
852.465	679.83
852.644	729.43
852.823	715.09
853.002	694.36
853.181	687.77
853.359	723.42
853.538	690.68
853.717	738.53
853.896	682.93
854.075	645.92
854.254	639.33
854.433	570.94
854.611	660.65
854.79	587.6
854.969	618.6
855.148	670.33
855.327	606.59
855.505	657.74
855.684	630.03
855.863	607.56
856.041	602.13
856.22	640.88
856.399	627.13
856.577	722.84
856.756	663.36
856.934	771.08
857.113	776.89
857.291	678.86
857.47	678.08
857.648	697.26
857.827	691.65
858.005	704.05
858.184	641.85
858.362	739.5
858.541	672.85
858.719	659.48
858.898	674.79
859.076	641.85
859.254	718.58
859.433	687.58
859.611	631
859.789	642.05
859.967	725.74
860.146	737.56
860.324	646.7
860.502	656.38
860.68	630.61
860.859	639.33
861.037	674.98
861.215	676.34
861.393	649.6
861.571	659.87
861.749	648.44
861.927	669.75
862.105	660.06
862.283	650.96
862.461	655.61
862.639	604.85
862.817	618.99
862.995	637.59
863.173	616.08
863.351	641.08
863.529	637.98
863.707	696.3
863.885	652.51
864.063	600.39
864.241	620.15
864.418	698.81
864.596	626.74
864.774	597.68
864.952	631.39
865.129	655.8
865.307	606.4
865.485	582.18
865.663	653.48
865.84	590.7
866.018	618.41
866.196	500.22
866.373	540.52
866.551	533.16
866.728	461.47
866.906	547.11
867.084	546.14
867.261	568.62
867.439	569.78
867.616	598.84
867.794	594.38
867.971	569.39
868.149	565.71
868.326	617.25
868.503	617.83
868.681	607.75
868.858	550.02
869.035	538.39
869.213	615.31
869.39	562.42
869.567	641.08
869.745	530.06
869.922	594
870.099	592.83
870.276	621.9
870.454	583.73
870.631	595.35
870.808	565.52
870.985	584.7
871.162	633.91
871.339	595.55
871.517	562.03
871.694	552.53
871.871	553.89
872.048	591.67
872.225	546.53
872.402	582.57
872.579	548.27
872.756	562.22
872.933	537.62
873.11	555.63
873.287	573.65
873.463	547.3
873.64	530.64
873.817	605.23
873.994	523.47
874.171	521.34
874.348	547.88
874.524	519.6
874.701	561.06
874.878	517.27
875.055	564.93
875.231	556.41
875.408	556.8
875.585	519.79
875.762	553.7
875.938	541.3
876.115	525.8
876.291	526.77
876.468	537.62
876.645	517.66
876.821	505.07
876.998	524.05
877.174	532.77
877.351	512.43
877.527	499.45
877.704	519.6
877.88	515.34
878.057	491.5
878.233	558.93
878.409	515.53
878.586	521.54
878.762	510.49
878.938	505.07
879.115	458.57
879.291	520.95
879.467	468.45
879.644	458.57
879.82	519.02
879.996	489.76
880.172	440.94
880.349	463.02
880.525	520.95
880.701	473.68
880.877	470.58
881.053	489.18
881.229	486.85
881.405	497.51
881.581	455.47
881.757	485.5
881.933	487.05
882.109	522.31
882.285	463.02
882.461	443.65
882.637	461.67
882.813	441.91
882.989	468.45
883.165	523.28
883.341	466.12
883.517	510.49
883.693	492.67
883.869	515.92
884.044	484.72
884.22	499.45
884.396	516.5
884.572	502.16
884.747	511.07
884.923	472.13
885.099	499.25
885.275	507.97
885.45	453.53
885.626	466.9
885.801	452.37
885.977	494.41
886.153	406.64
886.328	512.04
886.504	475.81
886.679	515.34
886.855	450.82
887.03	493.05
887.206	506.04
887.381	484.72
887.557	489.95
887.732	504.87
887.908	472.32
888.083	528.9
888.258	466.12
888.434	446.56
888.609	455.47
888.784	508.36
888.96	451.01
889.135	477.55
889.31	466.32
889.485	478.52
889.661	458.37
889.836	517.66
890.011	521.15
890.186	475.23
890.361	450.43
890.537	495.19
890.712	484.92
890.887	480.85
891.062	489.57
891.237	529.67
891.412	468.25
891.587	469.8
891.762	498.09
891.937	519.99
892.112	439.19
892.287	481.24
892.462	452.95
892.637	431.83
892.812	397.15
892.987	426.79
893.161	421.17
893.336	424.86
893.511	434.35
893.686	429.31
893.861	420.98
894.035	417.69
894.21	446.75
894.385	391.53
894.56	444.62
894.734	379.32
894.909	359.56
895.084	403.74
895.258	392.5
895.433	417.49
895.608	390.95
895.782	338.64
895.957	335.73
896.131	370.8
896.306	309.38
896.48	324.49
896.655	364.02
896.829	318.1
897.004	302.99
897.178	304.54
897.353	292.91
897.527	350.84
897.701	333.02
897.876	274.9
898.05	346.97
898.224	336.12
898.399	368.47
898.573	338.06
898.747	215.8
898.921	313.06
899.096	227.62
899.27	253.78
899.444	261.33
899.618	262.11
899.792	277.99
899.967	281.48
900.141	295.63
900.315	232.66
900.489	246.41
900.663	287.88
900.837	292.14
901.011	241.38
901.185	335.73
901.359	285.16
901.533	261.53
901.707	266.18
901.881	277.61
902.055	220.26
902.229	287.1
902.403	314.81
902.576	250.68
902.75	271.02
902.924	364.41
903.098	293.88
903.272	318.1
903.446	368.28
903.619	313.45
903.793	334.18
903.967	313.06
904.14	355.88
904.314	339.8
904.488	356.27
904.661	364.21
904.835	329.14
905.009	375.45
905.182	409.74
905.356	358.21
905.529	349.49
905.703	328.95
905.876	347.16
906.05	280.32
906.223	296.21
906.397	243.31
906.57	281.68
906.744	239.63
906.917	263.85
907.09	291.36
907.264	286.13
907.437	246.03
907.61	233.24
907.784	264.63
907.957	278.96
908.13	242.93
908.304	277.03
908.477	251.84
908.65	251.45
908.823	209.21
908.996	302.6
909.17	241.96
909.343	209.41
909.516	230.53
909.689	253.78
909.862	226.65
910.035	245.64
910.208	218.32
910.381	225.88
910.554	303.18
910.727	247
910.9	228.01
911.073	213.28
911.246	274.12
911.419	267.53
911.592	263.85
911.765	222.2
911.938	239.25
912.11	240.8
912.283	235.37
912.456	257.07
912.629	222.2
912.802	230.72
912.974	163.1
913.147	199.91
913.32	151.28
913.493	197.98
913.665	223.55
913.838	198.17
914.01	204.18
914.183	184.61
914.356	172.02
914.528	227.23
914.701	257.26
914.873	247
915.046	211.73
915.218	180.35
915.391	131.72
915.563	171.43
915.736	205.92
915.908	219.68
916.081	191.2
916.253	192.75
916.425	182.67
916.598	217.55
916.77	195.65
916.942	179.77
917.115	155.93
917.287	193.13
917.459	172.98
917.632	155.93
917.804	156.32
917.976	209.99
918.148	190.61
918.32	175.12
918.493	220.84
918.665	245.25
918.837	208.63
919.009	231.69
919.181	258.81
919.353	219.87
919.525	191.97
919.697	209.02
919.869	216.38
920.041	260.95
920.213	297.18
920.385	246.61
920.557	191.39
920.729	231.69
920.901	233.82
921.073	206.5
921.244	187.52
921.416	256.68
921.588	208.63
921.76	194.88
921.932	276.25
922.103	178.22
922.275	239.63
922.447	193.91
922.619	153.03
922.79	209.8
922.962	199.33
923.134	214.06
923.305	177.44
923.477	183.64
923.648	171.43
923.82	201.27
923.991	118.15
924.163	126.48
924.335	181.7
924.506	150.12
924.677	206.7
924.849	153.61
925.02	175.31
925.192	192.75
925.363	178.6
925.535	181.51
925.706	142.95
925.877	219.68
926.049	156.52
926.22	209.6
926.391	174.15
926.562	197.78
926.734	152.06
926.905	174.34
927.076	129.39
927.247	177.83
927.419	131.91
927.59	111.95
927.761	161.36
927.932	151.67
928.103	165.04
928.274	116.99
928.445	116.8
928.616	144.89
928.787	137.72
928.958	142.37
929.129	134.43
929.3	127.65
929.471	98.39
929.642	79.21
929.813	30.97
929.984	111.37
930.155	63.52
930.326	96.45
930.496	83.28
930.667	2.68
930.838	84.05
931.009	60.03
931.18	62.74
931.35	66.42
931.521	59.25
931.692	30.39
931.863	8.3
932.033	63.13
932.204	47.44
932.374	41.62
932.545	29.42
932.716	52.86
932.886	61.77
933.057	11.4
933.227	40.27
933.398	95.68
933.568	24.77
933.739	-22.89
933.909	-0.81
934.08	63.32
934.25	-42.66
934.421	-2.94
934.591	9.07
934.761	-31.61
934.932	-22.7
935.102	-3.52
935.272	-30.84
935.443	17.02
935.613	2.1
935.783	-7.2
935.953	-21.15
936.123	148.96
936.294	-10.3
936.464	3.65
936.634	17.6
936.804	-40.33
936.974	-37.23
937.144	26.32
937.314	28.25
937.484	-4.49
937.655	-18.83
937.825	45.69
937.995	-28.9
938.165	27.09
938.334	-9.14
938.504	11.59
938.674	-25.8
938.844	2.68
939.014	24.19
939.184	31.74
939.354	51.89
939.524	44.34
939.694	20.5
939.863	33.87
940.033	52.47
940.203	69.91
940.373	76.11
940.542	77.47
940.712	38.33
940.882	70.49
941.051	58.67
941.221	55.38
941.391	76.69
941.56	-4.88
941.73	14.11
941.899	114.28
942.069	20.5
942.238	61.19
942.408	3.07
942.577	47.63
942.747	-1.58
942.916	11.98
943.086	-5.65
943.255	50.54
943.425	21.09
943.594	5.01
943.763	-31.23
943.933	-19.41
944.102	-53.7
944.271	11.21
944.441	32.13
944.61	-4.29
944.779	17.79
944.948	91.61
945.117	-2.55
945.287	9.46
945.456	-38.01
945.625	-28.51
945.794	60.03
945.963	-23.67
946.132	27.67
946.301	-6.04
946.47	48.99
946.639	-16.11
946.808	21.67
946.977	27.87
947.146	71.65
947.315	15.08
947.484	37.75
947.653	5.01
947.822	13.53
947.991	3.46
948.16	83.09
948.329	49.57
948.498	28.45
948.666	34.07
948.835	50.73
949.004	-26.38
949.173	-37.23
949.341	27.29
949.51	29.8
949.679	66.04
949.847	53.64
950.016	101.49
950.185	68.94
950.353	-24.64
950.522	1.13
950.69	47.63
950.859	3.46
951.028	51.7
951.196	36.78
951.365	0.55
951.533	14.89
951.701	41.43
951.87	48.79
952.038	0.16
952.207	46.85
952.375	99.17
952.543	35.04
952.712	20.12
952.88	-10.69
953.048	75.92
953.217	14.89
953.385	14.69
953.553	66.81
953.721	-27.74
953.89	17.4
954.058	7.52
954.226	-17.28
954.394	6.75
954.562	-24.06
954.73	39.88
954.898	-11.85
955.067	41.04
955.235	3.65
955.403	57.12
955.571	92.97
955.739	39.69
955.907	2.1
956.075	13.72
956.243	10.62
956.41	36.2
956.578	4.23
956.746	-20.57
956.914	14.69
957.082	26.7
957.25	42.98
957.418	-4.49
957.585	26.9
957.753	73.01
957.921	-27.35
958.089	18.95
958.256	36.39
958.424	34.45
958.592	34.26
958.759	-2.94
958.927	51.89
959.095	-9.91
959.262	14.11
959.43	31.16
959.597	0.55
959.765	1.91
959.932	-25.41
960.1	46.27
960.267	20.89
960.435	39.1
960.602	26.7
960.77	-2.16
960.937	-31.61
961.104	18.57
961.272	-23.67
961.439	-2.74
961.606	17.99
961.774	87.93
961.941	15.85
962.108	43.37
962.275	24.77
962.443	60.42
962.61	12.17
962.777	79.6
962.944	32.32
963.111	32.52
963.278	25.74
963.446	43.75
963.613	40.85
963.78	45.5
963.947	40.85
964.114	24.77
964.281	110.79
964.448	56.54
964.615	14.69
964.782	53.64
964.949	55.38
965.116	16.24
965.282	68.94
965.449	19.54
965.616	-13.01
965.783	42.98
965.95	31.16
966.117	2.87
966.283	25.54
966.45	28.25
966.617	22.05
966.784	87.93
966.95	45.89
967.117	63.52
967.284	7.72
967.45	3.26
967.617	86.38
967.784	45.3
967.95	74.37
968.117	23.99
968.283	69.91
968.45	117.38
968.616	51.7
968.783	69.52
968.949	53.44
969.116	63.9
969.282	30.58
969.449	57.51
969.615	21.09
969.781	23.8
969.948	9.07
970.114	2.29
970.28	93.35
970.447	45.5
970.613	74.37
970.779	23.02
970.945	41.62
971.112	19.92
971.278	53.25
971.444	14.11
971.61	56.15
971.776	36.97
971.942	43.37
972.108	51.7
972.275	23.22
972.441	40.07
972.607	108.27
972.773	22.83
972.939	59.25
973.105	39.49
973.271	0.36
973.437	14.69
973.602	2.49
973.768	53.44
973.934	30.19
974.1	59.84
974.266	-33.94
974.432	37.94
974.598	31.94
974.763	72.04
974.929	26.9
975.095	88.12
975.261	8.49
975.426	37.36
975.592	39.88
975.758	91.8
975.923	5.01
976.089	23.6
976.255	72.62
976.42	64.87
976.586	54.99
976.751	46.08
976.917	122.61
977.082	30.39
977.248	-15.92
977.413	-16.11
977.579	13.72
977.744	51.31
977.91	-0.42
978.075	34.65
978.24	79.6
978.406	9.66
978.571	1.91
978.736	28.06
978.902	37.75
979.067	3.65
979.232	-25.99
979.397	38.52
979.563	85.99
979.728	3.26
979.893	32.13
980.058	13.53
980.223	50.92
980.388	48.79
980.554	46.27
980.719	24.77
980.884	21.47
981.049	83.09
981.214	4.81
981.379	35.23
981.544	36
981.709	23.02
981.874	45.5
982.039	26.9
982.204	71.27
982.368	29.61
982.533	1.13
982.698	66.62
982.863	64.29
983.028	8.69
983.193	15.85
983.357	36.39
983.522	21.67
983.687	27.67
983.852	20.7
984.016	4.81
984.181	22.44
984.346	25.15
984.51	51.5
984.675	37.36
984.839	67.78
985.004	51.5
985.168	61.19
985.333	39.3
985.498	49.18
985.662	54.99
985.827	33.29
985.991	26.51
986.155	28.64
986.32	33.1
986.484	68.17
986.649	34.07
986.813	2.87
986.977	45.11
987.142	45.3
987.306	-8.56
987.47	11.98
987.634	15.08
987.799	39.49
987.963	38.33
988.127	68.94
988.291	84.83
988.455	23.02
988.62	-6.81
988.784	46.47
988.948	54.99
989.112	-1.39
989.276	57.12
989.44	32.52
989.604	9.27
989.768	12.17
989.932	72.43
990.096	9.66
990.26	6.75
990.424	6.75
990.588	24.77
990.752	85.8
990.915	58.09
991.079	18.95
991.243	11.79
991.407	43.56
991.571	53.25
991.734	52.09
991.898	61.39
992.062	126.29
992.226	21.67
992.389	-7.2
992.553	-38.78
992.717	16.05
992.88	31.74
993.044	47.05
993.207	3.84
993.371	17.21
993.535	29.61
993.698	5.97
993.862	65.26
994.025	73.98
994.189	-9.91
994.352	26.12
994.515	3.46
994.679	57.9
994.842	33.49
995.006	75.53
995.169	6.94
995.332	9.07
995.496	53.25
995.659	-7.39
995.822	33.29
995.985	24.96
996.149	68.75
996.312	19.34
996.475	71.65
996.638	9.27
996.801	79.4
996.964	84.83
997.128	18.76
997.291	15.47
997.454	57.12
997.617	-26.77
997.78	90.06
997.943	11.01
998.106	38.91
998.269	-8.75
998.432	16.44
998.595	29.22
998.758	-18.63
998.92	-20.76
999.083	-21.73
999.246	47.05
999.409	-30.26
999.572	-25.41
999.735	10.04
999.897	41.24
1000.06	13.92
1000.223	-3.52
1000.386	69.14
1000.548	17.6
1000.711	23.22
1000.874	47.82
1001.036	-7.78
1001.199	54.6
1001.361	22.05
1001.524	12.17
1001.687	46.85
1001.849	5.2
1002.012	22.64
1002.174	28.45
1002.337	52.28
1002.499	13.72
1002.661	65.84
1002.824	-25.61
1002.986	18.18
1003.149	17.02
1003.311	-39.56
1003.473	74.75
1003.636	17.02
1003.798	13.34
1003.96	34.26
1004.123	16.63
1004.285	6.36
1004.447	17.99
1004.609	23.99
1004.771	83.47
1004.933	-25.99
1005.096	-11.27
1005.258	-14.56
1005.42	0.74
1005.582	53.64
1005.744	50.73
1005.906	-13.98
1006.068	6.75
1006.23	-10.11
1006.392	-21.15
1006.554	6.94
1006.716	77.66
1006.878	29.22
1007.04	-5.65
1007.202	-12.24
1007.363	4.62
1007.525	15.85
1007.687	29.22
1007.849	42.79
1008.011	-44.79
1008.172	-14.56
1008.334	-23.09
1008.496	48.79
1008.658	-30.45
1008.819	20.7
1008.981	-42.46
1009.143	-7.78
1009.304	4.23
1009.466	21.47
1009.627	46.66
1009.789	94.32
1009.95	12.37
1010.112	-10.11
1010.273	11.59
1010.435	-21.15
1010.596	-1.97
1010.758	-12.63
1010.919	10.82
1011.081	-5.07
1011.242	5.2
1011.403	13.14
1011.565	13.53
1011.726	20.7
1011.887	-17.28
1012.049	-8.17
1012.21	52.47
1012.371	64.1
1012.532	-48.47
1012.693	11.21
1012.855	-3.13
1013.016	8.69
1013.177	30.97
1013.338	10.04
1013.499	58.48
1013.66	25.15
1013.821	32.52
1013.982	30.19
1014.143	25.74
1014.304	-5.84
1014.465	37.94
1014.626	21.47
1014.787	3.65
1014.948	92
1015.109	-62.61
1015.27	37.75
1015.431	-9.33
1015.592	-6.04
1015.752	50.54
1015.913	20.31
1016.074	40.85
1016.235	13.53
1016.395	24.38
1016.556	10.43
1016.717	2.87
1016.877	43.17
1017.038	-8.94
1017.199	27.29
1017.359	13.72
1017.52	-2.55
1017.681	-14.76
1017.841	-1.39
1018.002	5.59
1018.162	11.01
1018.323	55.77
1018.483	-12.82
1018.644	10.62
1018.804	-32.39
1018.964	-39.17
1019.125	-20.76
1019.285	19.54
1019.446	-17.08
1019.606	-5.26
1019.766	-63.19
1019.926	43.37
1020.087	17.4
1020.247	-42.66
1020.407	29.42
1020.567	39.3
1020.728	1.32
1020.888	-54.09
1021.048	-9.33
1021.208	-21.34
1021.368	-25.03
1021.528	54.41
1021.688	10.43
1021.848	18.18
1022.008	-10.49
1022.168	-18.44
1022.328	13.53
1022.488	18.76
1022.648	-13.4
1022.808	25.74
1022.968	30.77
1023.128	-38.59
1023.288	-17.47
1023.448	-23.86
1023.608	6.56
1023.767	17.6
1023.927	-32
1024.087	-20.57
1024.247	-50.02
1024.406	4.23
1024.566	-19.41
1024.726	-17.47
1024.885	-1.39
1025.045	31.74
1025.205	-11.46
1025.364	8.88
1025.524	19.73
1025.683	-3.91
1025.843	2.49
1026.003	4.62
1026.162	54.41
1026.321	56.54
1026.481	1.71
1026.64	-12.24
1026.8	21.28
1026.959	1.71
1027.119	3.84
1027.278	-7.78
1027.437	-4.49
1027.597	-5.26
1027.756	7.72
1027.915	20.5
1028.074	17.99
1028.234	-12.63
1028.393	-3.91
1028.552	-10.3
1028.711	-48.86
1028.87	15.85
1029.03	-31.23
1029.189	-4.29
1029.348	-57.77
1029.507	-28.51
1029.666	12.37
1029.825	-33.36
1029.984	-18.63
1030.143	-7.59
1030.302	4.81
1030.461	-35.88
1030.62	-0.03
1030.779	18.37
1030.938	-40.53
1031.097	-19.02
1031.255	9.85
1031.414	44.14
1031.573	43.17
1031.732	-24.83
1031.891	-19.6
1032.049	50.15
1032.208	14.31
1032.367	-36.65
1032.525	-6.04
1032.684	-6.04
1032.843	-2.94
1033.001	-55.25
1033.16	134.23
1033.319	34.26
1033.477	6.56
1033.636	-17.86
1033.794	-55.44
1033.953	36
1034.111	27.09
1034.27	-50.21
1034.428	4.42
1034.587	-39.36
1034.745	6.75
1034.903	-3.13
1035.062	13.53
1035.22	-27.93
1035.378	17.4
1035.537	-44.01
1035.695	7.14
1035.853	24.19
1036.011	21.09
1036.17	-3.13
1036.328	-71.53
1036.486	8.69
1036.644	9.07
1036.802	-62.61
1036.96	-34.52
1037.119	-31.42
1037.277	-28.32
1037.435	-47.11
1037.593	-37.81
1037.751	12.37
1037.909	12.76
1038.067	12.76
