Data from oakcork_FLMT105791__186__17-31-59-057.txt Node

Date: Mon Mar 20 17:31:59 GMT 2023
User: antho
Spectrometer: FLMT10579
Trigger mode: 0
Integration Time (sec): 1.000000E-1
Scans to average: 10
Electric dark correction enabled: true
Nonlinearity correction enabled: false
Boxcar width: 0
XAxis mode: Wavelengths
Number of Pixels in Spectrum: 3648
>>>>>Begin Spectral Data<<<<<
345.248	-167.83
345.464	-167.83
345.681	-167.83
345.898	-166.86
346.114	-124.63
346.331	-29.5
346.548	16.42
346.764	-12.84
346.981	5.38
347.197	-11.48
347.414	26.49
347.631	-37.44
347.847	46.45
348.064	-8.38
348.28	39.48
348.497	-32.79
348.713	-1.79
348.93	29.4
349.146	28.82
349.363	-15.16
349.579	29.59
349.796	-12.64
350.012	13.71
350.229	23.78
350.445	9.45
350.661	-18.45
350.878	-1.79
351.094	5.18
351.311	40.44
351.527	27.08
351.743	1.7
351.96	32.31
352.176	44.9
352.392	28.24
352.609	6.93
352.825	1.7
353.041	1.5
353.257	-9.74
353.474	9.83
353.69	21.07
353.906	9.45
354.122	-20.97
354.339	34.05
354.555	-0.63
354.771	11.58
354.987	37.73
355.203	81.52
355.42	2.47
355.636	-22.72
355.852	5.96
356.068	-12.64
356.284	-18.65
356.5	75.32
356.716	37.34
356.932	26.88
357.148	53.81
357.364	-3.15
357.58	33.66
357.796	86.17
358.012	32.69
358.228	12.16
358.444	-60.89
358.66	49.16
358.876	14.29
359.092	-7.41
359.308	23.78
359.524	31.92
359.74	-8.57
359.956	-26.2
360.172	-10.9
360.388	36.96
360.604	11.77
360.819	50.13
361.035	29.79
361.251	35.02
361.467	19.91
361.683	48
361.898	30.56
362.114	37.54
362.33	32.89
362.546	49.55
362.762	31.34
362.977	36.76
363.193	-13.61
363.409	70.09
363.624	-6.25
363.84	-26.2
364.056	-27.17
364.271	44.51
364.487	0.53
364.703	4.41
364.918	0.73
365.134	9.25
365.35	11
365.565	113.87
365.781	20.1
365.996	51.68
366.212	50.13
366.427	28.43
366.643	-7.8
366.858	25.14
367.074	-16.9
367.289	54.78
367.505	101.67
367.72	-15.35
367.936	-2.95
368.151	48.58
368.367	36.96
368.582	12.74
368.798	4.02
369.013	77.64
369.228	12.16
369.444	28.63
369.659	71.83
369.874	33.66
370.09	85.01
370.305	-40.93
370.52	-11.09
370.736	53.23
370.951	21.65
371.166	30.95
371.381	93.34
371.597	62.73
371.812	-30.47
372.027	5.76
372.242	9.64
372.458	79.19
372.673	-6.05
372.888	30.76
373.103	33.47
373.318	85.2
373.533	9.83
373.749	33.86
373.964	-41.12
374.179	69.31
374.394	14.48
374.609	63.89
374.824	-3.54
375.039	63.31
375.254	8.09
375.469	57.11
375.684	19.33
375.899	60.01
376.114	25.91
376.329	14.1
376.544	77.06
376.759	57.49
376.974	1.7
377.189	0.92
377.404	32.5
377.619	39.86
377.834	-61.85
378.049	-40.74
378.264	-8.38
378.478	31.14
378.693	-2.18
378.908	27.08
379.123	9.06
379.338	60.59
379.553	36.57
379.767	30.76
379.982	35.02
380.197	47.23
380.412	39.48
380.626	45.48
380.841	102.25
381.056	34.44
381.271	89.27
381.485	-2.37
381.7	-14.97
381.915	13.13
382.129	4.99
382.344	18.55
382.559	8.67
382.773	55.56
382.988	0.34
383.202	32.69
383.417	17.78
383.632	117.36
383.846	29.21
384.061	11.77
384.275	12.35
384.49	55.17
384.704	56.33
384.919	29.79
385.133	50.33
385.348	40.06
385.562	-12.64
385.777	62.92
385.991	23.39
386.206	8.28
386.42	10.8
386.634	71.25
386.849	60.21
387.063	37.93
387.277	-20.59
387.492	13.13
387.706	-3.73
387.92	10.61
388.135	49.16
388.349	33.08
388.563	36.96
388.778	18.55
388.992	26.88
389.206	51.68
389.42	103.61
389.635	51.29
389.849	62.34
390.063	71.83
390.277	39.09
390.491	68.54
390.706	67.18
390.92	58.66
391.134	31.34
391.348	45.29
391.562	4.8
391.776	20.68
391.99	2.86
392.205	60.01
392.419	11.58
392.633	11.96
392.847	64.86
393.061	17.58
393.275	86.56
393.489	33.47
393.703	26.49
393.917	66.02
394.131	9.25
394.345	36.96
394.559	52.26
394.773	30.37
394.986	60.01
395.2	30.76
395.414	90.43
395.628	15.06
395.842	45.09
396.056	7.7
396.27	-18.84
396.484	39.86
396.697	48.78
396.911	62.34
397.125	39.86
397.339	73.58
397.553	52.26
397.766	93.73
397.98	70.48
398.194	90.04
398.408	28.43
398.621	48.97
398.835	82.49
399.049	29.21
399.262	82.1
399.476	76.68
399.69	55.36
399.903	103.03
400.117	58.27
400.331	69.12
400.544	31.14
400.758	113.49
400.971	39.86
401.185	67.38
401.398	34.63
401.612	105.74
401.826	69.51
402.039	68.73
402.253	18.36
402.466	102.44
402.68	29.21
402.893	64.28
403.106	39.86
403.32	35.99
403.533	63.11
403.747	62.53
403.96	72.8
404.174	78.42
404.387	13.9
404.6	52.07
404.814	96.83
405.027	60.01
405.24	37.54
405.454	49.55
405.667	72.41
405.88	-7.8
406.094	50.71
406.307	92.37
406.52	51.88
406.733	16.81
406.947	12.35
407.16	84.62
407.373	93.53
407.586	39.09
407.799	37.15
408.012	67.38
408.226	46.64
408.439	97.6
408.652	21.84
408.865	93.73
409.078	99.93
409.291	92.95
409.504	52.26
409.717	71.44
409.93	66.6
410.143	50.13
410.357	-3.34
410.57	21.07
410.783	62.92
410.996	57.69
411.209	92.76
411.421	104.58
411.634	32.5
411.847	47.61
412.06	50.52
412.273	45.87
412.486	78.23
412.699	154.95
412.912	60.4
413.125	86.94
413.338	84.04
413.55	101.86
413.763	49.74
413.976	89.46
414.189	60.59
414.402	58.08
414.615	109.03
414.827	61.18
415.04	74.93
415.253	73.19
415.466	86.56
415.678	123.95
415.891	100.12
416.104	46.84
416.316	75.32
416.529	41.8
416.742	79.78
416.954	99.93
417.167	72.61
417.38	55.75
417.592	90.24
417.805	44.51
418.017	29.98
418.23	79.19
418.442	77.26
418.655	59.82
418.868	74.74
419.08	92.18
419.293	111.55
419.505	85.59
419.718	82.88
419.93	120.07
420.142	65.83
420.355	109.22
420.567	117.36
420.78	113.87
420.992	66.21
421.205	128.6
421.417	37.73
421.629	40.25
421.842	18.16
422.054	13.32
422.266	116.78
422.479	114.26
422.691	69.31
422.903	110.39
423.115	53.81
423.328	56.33
423.54	87.91
423.752	61.18
423.964	67.76
424.177	105.93
424.389	79.19
424.601	166.38
424.813	85.78
425.025	119.11
425.238	119.11
425.45	88.49
425.662	65.63
425.874	357.8
426.086	84.43
426.298	95.08
426.51	92.37
426.722	76.87
426.934	73.19
427.146	107.48
427.358	49.94
427.57	120.85
427.782	71.44
427.994	91.4
428.206	52.84
428.418	15.26
428.63	87.91
428.842	94.5
429.054	71.25
429.266	129.76
429.478	70.28
429.69	95.47
429.902	46.64
430.114	96.63
430.325	114.46
430.537	75.71
430.749	81.33
430.961	44.32
431.173	69.51
431.384	106.51
431.596	32.11
431.808	77.64
432.02	96.83
432.231	124.53
432.443	93.92
432.655	102.83
432.867	61.95
433.078	117.94
433.29	155.92
433.502	112.71
433.713	128.21
433.925	113.29
434.136	139.45
434.348	65.05
434.56	32.89
434.771	201.64
434.983	38.12
435.194	62.14
435.406	93.73
435.617	115.23
435.829	172.58
436.04	85.78
436.252	131.7
436.463	160.96
436.675	130.34
436.886	114.65
437.098	116.78
437.309	135.19
437.521	102.25
437.732	81.52
437.943	119.11
438.155	94.69
438.366	59.63
438.578	146.62
438.789	105.54
439	143.52
439.211	102.64
439.423	140.61
439.634	127.82
439.845	120.07
440.057	116.2
440.268	161.73
440.479	83.84
440.69	120.46
440.902	123.56
441.113	128.79
441.324	91.59
441.535	104.77
441.746	166.38
441.957	65.05
442.168	115.62
442.38	129.57
442.591	136.35
442.802	115.81
443.013	117.36
443.224	141.97
443.435	91.21
443.646	110.77
443.857	122.01
444.068	104.96
444.279	93.34
444.49	178.39
444.701	134.22
444.912	201.84
445.123	160.37
445.334	130.34
445.545	122.01
445.756	129.18
445.967	102.64
446.178	153.4
446.388	190.79
446.599	161.54
446.81	164.83
447.021	120.27
447.232	170.26
447.443	162.7
447.653	100.31
447.864	161.54
448.075	134.8
448.286	161.34
448.496	159.6
448.707	186.72
448.918	128.02
449.129	221.21
449.339	119.3
449.55	169.87
449.761	147.2
449.971	193.89
450.182	125.31
450.393	172
450.603	140.61
450.814	188.08
451.024	153.21
451.235	170.64
451.446	210.36
451.656	196.99
451.867	119.3
452.077	166.96
452.288	204.94
452.498	203.39
452.709	155.53
452.919	175.1
453.13	150.88
453.34	191.96
453.55	125.31
453.761	204.35
453.971	173.74
454.182	183.43
454.392	188.86
454.602	229.35
454.813	173.74
455.023	227.99
455.233	101.09
455.444	179.94
455.654	88.3
455.864	158.44
456.075	154.56
456.285	146.23
456.495	152.24
456.705	202.03
456.916	197.96
457.126	221.02
457.336	163.09
457.546	126.86
457.756	143.71
457.967	211.33
458.177	172.77
458.387	182.27
458.597	148.17
458.807	171.03
459.017	159.02
459.227	177.81
459.437	167.16
459.647	177.23
459.857	176.84
460.068	170.64
460.278	235.16
460.488	207.07
460.698	220.44
460.908	190.6
461.117	160.18
461.327	156.11
461.537	175.49
461.747	175.87
461.957	159.21
462.167	274.3
462.377	206.1
462.587	187.89
462.797	217.34
463.007	175.1
463.216	209.78
463.426	237.49
463.636	220.24
463.846	170.06
464.056	167.93
464.265	222.18
464.475	151.85
464.685	176.07
464.895	216.56
465.104	188.47
465.314	216.56
465.524	159.41
465.733	157.86
465.943	251.63
466.153	237.29
466.362	225.09
466.572	220.63
466.782	151.27
466.991	180.72
467.201	258.99
467.41	164.44
467.62	209
467.829	192.54
468.039	221.79
468.249	187.5
468.458	165.8
468.668	208.81
468.877	200.48
469.086	238.07
469.296	245.04
469.505	218.5
469.715	262.67
469.924	204.55
470.134	240.59
470.343	257.83
470.552	209.59
470.762	213.27
470.971	191.37
471.18	231.48
471.39	215.59
471.599	203.39
471.808	246.98
472.018	181.11
472.227	245.82
472.436	254.15
472.645	199.7
472.855	193.31
473.064	269.45
473.273	229.35
473.482	248.72
473.691	248.72
473.901	241.36
474.11	236.71
474.319	307.23
474.528	249.5
474.737	274.1
474.946	244.85
475.155	250.08
475.364	266.16
475.573	237.87
475.783	245.62
475.992	266.35
476.201	301.23
476.41	241.17
476.619	224.12
476.828	258.02
477.037	227.8
477.245	239.62
477.454	282.44
477.663	237.1
477.872	243.69
478.081	315.57
478.29	221.6
478.499	335.33
478.708	277.59
478.917	339.98
479.125	257.44
479.334	290.57
479.543	280.69
479.752	288.25
479.961	258.02
480.169	303.17
480.378	257.64
480.587	370.78
480.796	309.17
481.004	280.89
481.213	306.27
481.422	292.51
481.63	290.57
481.839	302.39
482.048	350.05
482.256	292.32
482.465	305.68
482.674	294.45
482.882	322.15
483.091	390.55
483.299	320.6
483.508	329.71
483.716	287.67
483.925	286.31
484.134	315.57
484.342	281.66
484.551	358.58
484.759	361.68
484.967	303.17
485.176	355.48
485.384	342.88
485.593	350.44
485.801	342.88
486.01	345.02
486.218	320.22
486.426	262.09
486.635	278.17
486.843	333.97
487.051	308.4
487.26	293.67
487.468	341.14
487.676	372.91
487.885	292.51
488.093	311.11
488.301	340.95
488.509	317.7
488.717	371.56
488.926	332.03
489.134	325.83
489.342	361.29
489.55	296
489.758	362.45
489.967	305.3
490.175	427.55
490.383	330.48
490.591	442.08
490.799	330.68
491.007	402.56
491.215	357.61
491.423	356.06
491.631	339.01
491.839	373.3
492.047	398.3
492.255	368.07
492.463	331.07
492.671	362.65
492.879	399.07
493.087	370.98
493.295	375.24
493.503	384.15
493.711	398.49
493.919	400.23
494.127	434.14
494.334	420.77
494.542	377.37
494.75	400.62
494.958	383.96
495.166	444.21
495.374	418.25
495.581	420.96
495.789	412.83
495.997	466.49
496.205	407.4
496.412	375.43
496.62	382.99
496.828	400.04
497.035	401.98
497.243	436.46
497.451	397.71
497.658	436.46
497.866	372.72
498.074	475.02
498.281	388.03
498.489	457.58
498.696	420.96
498.904	421.16
499.112	431.43
499.319	495.17
499.527	413.21
499.734	469.59
499.942	404.5
500.149	418.83
500.357	432.2
500.564	416.12
500.771	435.3
500.979	412.63
501.186	420.38
501.394	432.59
501.601	403.72
501.808	463.2
502.016	432.98
502.223	451.58
502.43	441.7
502.638	423.48
502.845	398.88
503.052	497.69
503.26	425.42
503.467	502.92
503.674	438.6
503.881	440.53
504.089	521.91
504.296	468.04
504.503	390.35
504.71	448.67
504.917	414.18
505.125	464.75
505.332	451.38
505.539	492.07
505.746	501.18
505.953	486.84
506.16	487.23
506.367	486.64
506.574	525.2
506.781	517.64
506.988	442.86
507.195	471.53
507.402	485.29
507.609	504.47
507.816	476.76
508.023	469.98
508.23	463.78
508.437	460.49
508.644	529.46
508.851	521.71
509.058	521.52
509.265	499.24
509.472	516.68
509.679	594.56
509.885	509.7
510.092	505.05
510.299	515.9
510.506	525.78
510.713	510.28
510.92	499.04
511.126	530.63
511.333	563.37
511.54	572.47
511.746	595.92
511.953	578.48
512.16	560.46
512.367	527.33
512.573	529.27
512.78	536.05
512.987	548.45
513.193	574.22
513.4	495.56
513.606	540.12
513.813	555.04
514.02	553.87
514.226	639.32
514.433	586.81
514.639	555.81
514.846	585.65
515.052	541.67
515.259	569.57
515.465	580.42
515.672	557.17
515.878	670.9
516.085	557.17
516.291	631.57
516.497	550.77
516.704	565.5
516.91	545.35
517.117	517.45
517.323	506.99
517.529	533.14
517.736	543.03
517.942	549.42
518.148	555.62
518.354	616.46
518.561	589.33
518.767	558.14
518.973	608.51
519.179	640.29
519.386	597.86
519.592	593.98
519.798	614.52
520.004	659.08
520.21	613.55
520.417	661.4
520.623	673.61
520.829	676.71
521.035	669.74
521.241	688.53
521.447	700.54
521.653	772.03
521.859	671.67
522.065	710.23
522.271	776.3
522.477	718.37
522.683	742.2
522.889	738.13
523.095	727.47
523.301	708.68
523.507	685.43
523.713	698.6
523.919	696.67
524.125	766.8
524.331	735.03
524.537	785.6
524.742	796.64
524.948	791.8
525.154	786.57
525.36	899.13
525.566	797.42
525.772	836.94
525.977	769.52
526.183	809.23
526.389	818.73
526.595	784.82
526.8	786.37
527.006	725.34
527.212	720.69
527.417	723.79
527.623	697.83
527.829	790.44
528.034	806.52
528.24	784.24
528.446	767.77
528.651	881.31
528.857	817.76
529.062	887.7
529.268	844.5
529.473	854.38
529.679	833.45
529.884	945.44
530.09	893.9
530.295	897.19
530.501	885.76
530.706	890.41
530.912	837.91
531.117	883.83
531.323	889.83
531.528	923.93
531.733	920.64
531.939	906.69
532.144	943.31
532.35	915.41
532.555	950.48
532.76	947.18
532.966	949.31
533.171	921.61
533.376	870.26
533.581	857.48
533.787	909.59
533.992	943.11
534.197	934.01
534.402	916.76
534.607	897.97
534.813	1015.19
535.018	933.23
535.223	918.12
535.428	928.58
535.633	943.69
535.838	939.63
536.043	976.24
536.249	1052.97
536.454	979.15
536.659	977.02
536.864	951.64
537.069	951.06
537.274	983.61
537.479	978.38
537.684	996.97
537.889	990
538.094	1073.89
538.299	1012.28
538.504	1020.42
538.708	1024.1
538.913	1018.67
539.118	1000.07
539.323	1043.86
539.528	994.26
539.733	992.91
539.938	1005.5
540.142	1035.53
540.347	1007.82
540.552	958.42
540.757	996.39
540.962	1002.98
541.166	952.61
541.371	961.71
541.576	984.57
541.781	876.27
541.985	1036.69
542.19	1003.56
542.395	1055.87
542.599	1067.11
542.804	1049.67
543.008	1076.02
543.213	1015.19
543.418	972.56
543.622	1080.67
543.827	970.43
544.031	1081.64
544.236	1064.79
544.44	1036.31
544.645	1148.87
544.849	1038.82
545.054	1027.97
545.258	1129.3
545.463	1110.9
545.667	1032.43
545.872	1081.06
546.076	1068.27
546.281	1089
546.485	1029.91
546.689	1054.91
546.894	1129.89
547.098	1079.51
547.302	1002.59
547.507	1068.86
547.711	1070.02
547.915	1118.45
548.119	1033.21
548.324	1091.52
548.528	1112.45
548.732	1062.27
548.936	1117.68
549.141	1126.4
549.345	1046.77
549.549	1090.36
549.753	1081.06
549.957	1197.89
550.161	1132.99
550.366	1067.89
550.57	1064.59
550.774	1071.18
550.978	1078.93
551.182	1120.2
551.386	1087.65
551.59	1063.82
551.794	1077.77
551.998	1106.25
552.202	1098.89
552.406	1061.11
552.61	1124.27
552.814	1117.87
553.018	1157.78
553.222	1091.33
553.426	1078.74
553.63	1171.54
553.833	1102.95
554.037	1048.9
554.241	1108.38
554.445	1075.83
554.649	1080.87
554.853	1081.64
555.056	1130.47
555.26	1166.31
555.464	1100.44
555.668	1119.81
555.871	1103.54
556.075	1124.65
556.279	1089.2
556.483	1072.34
556.686	1091.52
556.89	1085.9
557.094	1094.62
557.297	1057.23
557.501	1113.61
557.704	1027.01
557.908	1106.44
558.112	1057.81
558.315	1113.42
558.519	1066.14
558.722	1075.44
558.926	1051.42
559.129	1014.8
559.333	999.88
559.536	1023.52
559.74	986.12
559.943	1012.09
560.147	977.21
560.35	1027.01
560.553	1014.41
560.757	970.82
560.96	1052.77
561.164	1024.49
561.367	1092.3
561.57	1025.65
561.774	1041.54
561.977	1018.67
562.18	1003.95
562.384	1093.65
562.587	1016.54
562.79	999.49
562.993	1006.08
563.197	1021.39
563.4	1087.84
563.603	1070.6
563.806	1101.79
564.009	967.33
564.212	1024.29
564.416	957.45
564.619	1014.8
564.822	955.51
565.025	1027.78
565.228	999.69
565.431	1021
565.634	892.93
565.837	964.04
566.04	971.59
566.243	942.92
566.446	902.23
566.649	963.84
566.852	919.86
567.055	921.8
567.258	928.78
567.461	1010.73
567.664	975.66
567.867	879.76
568.07	946.6
568.273	945.83
568.475	963.07
568.678	905.14
568.881	899.33
569.084	919.09
569.287	849.34
569.489	869.1
569.692	935.94
569.895	941.37
570.098	860.77
570.3	816.6
570.503	795.09
570.706	811.17
570.909	836.16
571.111	794.51
571.314	791.99
571.516	835.39
571.719	835.78
571.922	800.13
572.124	837.52
572.327	852.05
572.529	744.72
572.732	797.61
572.935	811.56
573.137	865.81
573.34	805.36
573.542	863.29
573.745	807.3
573.947	829
574.15	819.89
574.352	779.2
574.554	844.69
574.757	771.26
574.959	757.5
575.162	772.81
575.364	750.53
575.566	861.74
575.769	754.79
575.971	790.63
576.173	705.58
576.376	775.13
576.578	800.13
576.78	843.33
576.982	719.72
577.185	768.93
577.387	711
577.589	732.7
577.791	777.07
577.993	753.24
578.196	713.14
578.398	752.27
578.6	791.8
578.802	673.03
579.004	734.25
579.206	709.84
579.408	748.4
579.61	716.04
579.812	753.63
580.014	730.18
580.216	729.99
580.418	729.99
580.62	732.51
580.822	678.84
581.024	749.37
581.226	742.39
581.428	737.16
581.63	783.08
581.832	719.53
582.034	781.14
582.236	751.11
582.438	743.36
582.64	809.04
582.841	767
583.043	776.49
583.245	767.58
583.447	763.7
583.649	720.69
583.85	754.79
584.052	785.6
584.254	700.74
584.456	769.71
584.657	687.17
584.859	725.92
585.061	751.88
585.262	745.68
585.464	677.87
585.666	754.4
585.867	689.3
586.069	752.66
586.27	768.16
586.472	723.79
586.674	721.08
586.875	691.24
587.077	701.9
587.278	726.7
587.48	695.89
587.681	792.18
587.883	693.95
588.084	668.19
588.285	687.95
588.487	691.63
588.688	664.5
588.89	651.33
589.091	634.47
589.292	663.15
589.494	618.97
589.695	630.99
589.896	564.34
590.098	586.23
590.299	642.03
590.5	584.1
590.702	587.01
590.903	628.66
591.104	669.15
591.305	641.64
591.507	703.64
591.708	632.73
591.909	622.07
592.11	709.65
592.311	655.2
592.512	640.09
592.714	591.07
592.915	606.96
593.116	606.38
593.317	645.52
593.518	647.84
593.719	610.64
593.92	674.97
594.121	670.51
594.322	633.31
594.523	637.38
594.724	614.91
594.925	628.27
595.126	644.94
595.327	625.37
595.528	592.43
595.729	633.31
595.929	610.64
596.13	647.65
596.331	653.27
596.532	669.93
596.733	682.91
596.934	658.3
597.135	643.39
597.335	641.25
597.536	602.31
597.737	665.28
597.938	624.21
598.138	656.95
598.339	620.14
598.54	643.19
598.74	649.39
598.941	633.7
599.142	693.57
599.342	641.45
599.543	602.89
599.744	632.54
599.944	607.93
600.145	637.96
600.345	620.91
600.546	713.33
600.746	691.63
600.947	683.3
601.147	648.81
601.348	665.09
601.548	610.64
601.749	640.09
601.949	614.52
602.15	611.03
602.35	615.1
602.551	683.69
602.751	592.43
602.951	606.19
603.152	554.07
603.352	644.16
603.552	643
603.753	647.07
603.953	628.47
604.153	631.18
604.354	593.98
604.554	614.13
604.754	636.41
604.954	587.59
605.155	643.19
605.355	653.46
605.555	658.3
605.755	669.93
605.955	628.47
606.155	639.32
606.356	609.09
606.556	675.16
606.756	618.78
606.956	587.78
607.156	665.09
607.356	580.22
607.556	626.53
607.756	620.72
607.956	637.19
608.156	624.01
608.356	587.39
608.556	660.24
608.756	607.35
608.956	570.54
609.156	602.12
609.356	585.46
609.556	611.22
609.755	622.85
609.955	572.28
610.155	615.87
610.355	619.17
610.555	557.36
610.755	604.25
610.954	545.54
611.154	597.27
611.354	610.45
611.554	555.42
611.753	584.68
611.953	550.39
612.153	610.64
612.352	584.1
612.552	510.67
612.752	512.8
612.951	564.14
613.151	591.07
613.351	531.21
613.55	563.56
613.75	608.32
613.949	537.99
614.149	574.61
614.348	585.65
614.548	505.05
614.747	486.64
614.947	541.67
615.146	498.08
615.346	575.19
615.545	565.5
615.745	556.59
615.944	549.81
616.144	534.69
616.343	569.37
616.542	539.73
616.742	537.79
616.941	557.94
617.14	480.44
617.34	535.86
617.539	532.76
617.738	498.66
617.938	560.27
618.137	521.13
618.336	475.02
618.535	536.24
618.734	474.63
618.934	533.34
619.133	528.3
619.332	536.63
619.531	482.58
619.73	521.52
619.929	540.89
620.128	555.04
620.328	587.01
620.527	507.96
620.726	513.96
620.925	546.51
621.124	513.96
621.323	517.64
621.522	483.35
621.721	462.81
621.92	479.86
622.119	528.69
622.318	485.29
622.517	518.23
622.715	522.49
622.914	469.79
623.113	478.31
623.312	459.91
623.511	510.28
623.71	479.09
623.909	503.11
624.107	527.33
624.306	419.41
624.505	468.63
624.704	477.15
624.902	481.03
625.101	535.66
625.3	479.67
625.499	469.59
625.697	452.93
625.896	446.54
626.095	466.3
626.293	449.06
626.492	464.36
626.69	474.05
626.889	424.84
627.088	509.31
627.286	442.66
627.485	449.64
627.683	429.3
627.882	488.19
628.08	400.43
628.279	437.43
628.477	506.21
628.676	426
628.874	482.58
629.073	437.43
629.271	418.25
629.469	442.66
629.668	444.02
629.866	447.12
630.065	415.35
630.263	470.37
630.461	431.62
630.66	429.1
630.858	472.11
631.056	488.39
631.254	507.96
631.453	441.89
631.651	465.14
631.849	436.08
632.047	471.53
632.245	439.76
632.444	491.1
632.642	455.45
632.84	492.84
633.038	461.65
633.236	406.43
633.434	416.12
633.632	426.39
633.83	447.31
634.028	459.71
634.227	438.6
634.425	512.61
634.623	441.89
634.821	457.39
635.019	439.76
635.216	435.11
635.414	485.48
635.612	450.61
635.81	452.35
636.008	521.33
636.206	407.6
636.404	459.52
636.602	398.3
636.8	434.14
636.997	464.94
637.195	489.94
637.393	462.04
637.591	486.64
637.789	461.65
637.986	444.99
638.184	442.08
638.382	475.02
638.58	459.91
638.777	509.51
638.975	442.28
639.173	458.74
639.37	459.33
639.568	482.77
639.765	491.68
639.963	452.74
640.161	466.49
640.358	490.91
640.556	435.69
640.753	416.9
640.951	413.02
641.148	438.6
641.346	407.79
641.543	454.1
641.741	463.2
641.938	399.65
642.136	438.79
642.333	412.05
642.531	455.06
642.728	485.09
642.925	420.38
643.123	424.45
643.32	437.05
643.517	403.14
643.715	424.65
643.912	442.08
644.109	439.18
644.306	412.83
644.504	431.81
644.701	412.44
644.898	440.73
645.095	376.4
645.293	394.61
645.49	427.36
645.687	437.05
645.884	441.5
646.081	369.23
646.278	390.74
646.475	392.87
646.672	412.83
646.87	440.34
647.067	443.63
647.264	401.78
647.461	379.89
647.658	312.47
647.855	423.1
648.052	405.66
648.249	314.02
648.446	357.42
648.642	392.87
648.839	337.07
649.036	360.52
649.233	340.75
649.43	346.57
649.627	292.7
649.824	376.6
650.021	354.12
650.217	346.18
650.414	340.37
650.611	357.22
650.808	391.71
651.004	384.35
651.201	350.44
651.398	419.41
651.595	342.5
651.791	345.02
651.988	390.16
652.185	344.63
652.381	379.7
652.578	318.67
652.775	349.47
652.971	343.08
653.168	358
653.364	379.11
653.561	325.45
653.757	360.32
653.954	380.28
654.15	335.13
654.347	416.51
654.543	353.15
654.74	314.6
654.936	299.29
655.133	362.65
655.329	364.97
655.525	371.17
655.722	366.91
655.918	333.78
656.115	377.18
656.311	278.56
656.507	294.06
656.704	249.5
656.9	290.18
657.096	283.98
657.292	265.39
657.489	331.65
657.685	339.4
657.881	342.11
658.077	315.95
658.273	319.44
658.47	378.34
658.666	308.2
658.862	367.1
659.058	308.2
659.254	382.41
659.45	305.3
659.646	355.09
659.842	316.53
660.038	348.12
660.234	289.41
660.43	338.62
660.626	360.9
660.822	319.25
661.018	348.7
661.214	339.59
661.41	290.38
661.606	365.94
661.802	345.02
661.998	322.15
662.194	313.24
662.39	344.05
662.586	335.13
662.781	346.37
662.977	340.75
663.173	346.95
663.369	331.45
663.564	318.08
663.76	360.32
663.956	298.9
664.152	374.85
664.347	264.61
664.543	318.47
664.739	287.28
664.934	262.09
665.13	282.24
665.326	316.73
665.521	349.28
665.717	273.14
665.912	294.45
666.108	227.22
666.304	282.63
666.499	306.27
666.695	233.61
666.89	301.42
667.086	331.26
667.281	292.9
667.477	347.15
667.672	309.95
667.867	273.91
668.063	284.76
668.258	263.25
668.454	289.41
668.649	349.28
668.844	314.21
669.04	324.09
669.235	296.38
669.43	271.97
669.626	241.94
669.821	272.55
670.016	262.67
670.211	289.8
670.407	252.02
670.602	288.25
670.797	290.18
670.992	309.17
671.187	274.69
671.382	306.85
671.578	254.73
671.773	319.83
671.968	266.74
672.163	262.48
672.358	286.5
672.553	279.72
672.748	275.27
672.943	339.78
673.138	279.34
673.333	275.07
673.528	249.89
673.723	281.47
673.918	276.04
674.113	236.32
674.308	355.09
674.503	292.9
674.698	299.68
674.892	281.47
675.087	321.77
675.282	295.22
675.477	261.32
675.672	292.32
675.867	270.42
676.061	217.34
676.256	243.69
676.451	258.99
676.646	284.18
676.84	224.31
677.035	221.79
677.23	221.21
677.424	271
677.619	318.47
677.814	281.85
678.008	322.35
678.203	234.77
678.397	264.42
678.592	272.94
678.787	325.45
678.981	262.29
679.176	267.52
679.37	271.97
679.565	283.98
679.759	269.45
679.954	293.87
680.148	311.69
680.342	321.18
680.537	300.26
680.731	275.85
680.926	299.1
681.12	316.73
681.314	275.27
681.509	259.96
681.703	249.5
681.897	306.46
682.092	268.87
682.286	253.76
682.48	349.67
682.674	322.54
682.869	244.07
683.063	273.33
683.257	362.65
683.451	236.52
683.645	282.63
683.839	267.13
684.034	277.2
684.228	323.12
684.422	244.46
684.616	257.25
684.81	300.26
685.004	299.48
685.198	262.09
685.392	314.6
685.586	283.98
685.78	313.63
685.974	302.97
686.168	301.81
686.362	333.39
686.556	273.33
686.75	210.36
686.944	254.15
687.138	291.54
687.331	233.8
687.525	261.51
687.719	212.69
687.913	247.75
688.107	273.91
688.301	241.55
688.494	255.31
688.688	209.2
688.882	211.52
689.076	211.72
689.269	244.27
689.463	299.87
689.657	233.03
689.85	245.43
690.044	241.94
690.238	227.22
690.431	227.99
690.625	236.13
690.818	258.8
691.012	283.79
691.205	306.46
691.399	242.72
691.593	294.45
691.786	329.13
691.98	310.33
692.173	327.19
692.366	311.3
692.56	310.72
692.753	381.63
692.947	286.5
693.14	373.5
693.333	349.86
693.527	302.58
693.72	377.56
693.914	322.93
694.107	320.22
694.3	370.78
694.493	319.83
694.687	380.28
694.88	314.4
695.073	403.33
695.266	390.35
695.46	352.57
695.653	402.95
695.846	406.05
696.039	324.28
696.232	351.41
696.425	435.88
696.618	412.05
696.812	403.14
697.005	443.25
697.198	507.38
697.391	438.79
697.584	455.84
697.777	536.24
697.97	483.93
698.163	477.73
698.356	492.46
698.549	572.28
698.742	521.33
698.935	471.34
699.127	514.54
699.32	477.34
699.513	494.2
699.706	537.79
699.899	549.61
700.092	521.13
700.285	557.75
700.477	514.35
700.67	541.48
700.863	595.14
701.056	623.82
701.248	632.92
701.441	643
701.634	551.94
701.826	659.47
702.019	588.17
702.212	630.79
702.404	609.87
702.597	587.59
702.79	625.17
702.982	663.73
703.175	673.03
703.367	711.59
703.56	727.67
703.752	756.53
703.945	733.67
704.137	730.38
704.33	760.99
704.522	753.24
704.715	791.41
704.907	781.92
705.1	804.78
705.292	806.72
705.484	772.03
705.677	828.41
705.869	840.04
706.061	865.23
706.254	889.64
706.446	869.49
706.638	860.38
706.831	945.83
707.023	900.88
707.215	963.07
707.407	947.76
707.599	912.69
707.792	995.62
707.984	1000.46
708.176	1023.13
708.368	984.77
708.56	1031.85
708.752	988.06
708.944	1024.87
709.136	1055.29
709.329	1032.82
709.521	1129.89
709.713	1101.6
709.905	1092.88
710.097	1173.87
710.289	1087.26
710.481	1089.39
710.672	1148.29
710.864	1124.07
711.056	1188.59
711.248	1171.54
711.44	1165.73
711.632	1173.09
711.824	1232.57
712.016	1262.21
712.207	1247.49
712.399	1274.23
712.591	1307.55
712.783	1266.48
712.975	1281.4
713.166	1273.26
713.358	1305.42
713.55	1350.76
713.741	1371.1
713.933	1367.42
714.125	1362.96
714.316	1322.08
714.508	1414.11
714.7	1419.15
714.891	1429.22
715.083	1468.36
715.274	1437.75
715.466	1440.46
715.657	1488.32
715.849	1395.51
716.04	1468.94
716.232	1392.8
716.423	1481.92
716.615	1384.08
716.806	1356.76
716.998	1356.38
717.189	1339.91
717.381	1258.92
717.572	1211.65
717.763	1275.39
717.955	1280.23
718.146	1240.52
718.337	1230.25
718.528	1181.42
718.72	1126.01
718.911	1199.05
719.102	1138.41
719.293	1205.64
719.485	1199.83
719.676	1161.08
719.867	1159.33
720.058	1186.65
720.249	1162.43
720.44	1188.01
720.632	1274.23
720.823	1324.6
721.014	1405.2
721.205	1361.41
721.396	1454.02
721.587	1565.04
721.778	1541.02
721.969	1581.32
722.16	1645.83
722.351	1667.73
722.542	1759.95
722.733	1786.88
722.924	1684
723.115	1742.51
723.305	1707.06
723.496	1751.43
723.687	1614.06
723.878	1663.47
724.069	1671.99
724.26	1680.71
724.45	1631.3
724.641	1612.51
724.832	1665.21
725.023	1656.1
725.213	1656.1
725.404	1668.31
725.595	1675.28
725.785	1659.98
725.976	1711.13
726.167	1730.89
726.357	1671.22
726.548	1808.19
726.739	1732.63
726.929	1806.26
727.12	1834.16
727.31	1828.73
727.501	1802.77
727.691	1815.94
727.882	1834.35
728.072	1844.43
728.263	1909.33
728.453	1907.78
728.644	1951.18
728.834	1962.61
729.024	1920.18
729.215	1888.41
729.405	1954.86
729.596	1996.52
729.786	1979.27
729.976	2044.57
730.167	2017.64
730.357	2057.93
730.547	2026.74
730.737	2059.48
730.928	2131.95
731.118	2142.02
731.308	2091.84
731.498	2127.88
731.688	2221.65
731.879	2204.99
732.069	2230.76
732.259	2293.14
732.449	2333.25
732.639	2413.65
732.829	2438.84
733.019	2474.49
733.209	2491.73
733.399	2512.66
733.589	2611.47
733.779	2618.06
733.969	2640.73
734.159	2694.98
734.349	2721.33
734.539	2788.17
734.729	2778.48
734.919	2796.69
735.109	2798.63
735.299	2767.82
735.488	2830.21
735.678	2856.56
735.868	2854.62
736.058	2855.2
736.248	2810.06
736.437	2772.47
736.627	2819.17
736.817	2905.58
737.007	2873.42
737.196	2947.23
737.386	2909.26
737.576	2900.35
737.765	3011.95
737.955	2930.38
738.144	3048.76
738.334	2999.16
738.524	2968.93
738.713	2973.58
738.903	3026.67
739.092	3036.75
739.282	3069.49
739.471	3076.27
739.661	3041.78
739.85	3133.23
740.04	3167.14
740.229	3145.24
740.419	3191.55
740.608	3211.31
740.797	3183.41
740.987	3229.72
741.176	3263.43
741.365	3190.19
741.555	3206.86
741.744	3309.54
741.933	3212.47
742.123	3355.65
742.312	3289.2
742.501	3329.11
742.69	3371.54
742.88	3257.04
743.069	3401.57
743.258	3325.24
743.447	3401.77
743.636	3355.46
743.825	3313.61
744.014	3395.95
744.204	3445.55
744.393	3360.5
744.582	3423.08
744.771	3461.25
744.96	3437.03
745.149	3435.48
745.338	3450.98
745.527	3479.26
745.716	3444.2
745.905	3416.68
746.094	3499.8
746.283	3509.68
746.471	3513.75
746.66	3563.54
746.849	3568.58
747.038	3544.94
747.227	3453.11
747.416	3531.19
747.604	3516.46
747.793	3515.88
747.982	3493.8
748.171	3517.43
748.359	3533.13
748.548	3575.17
748.737	3586.02
748.926	3506
749.114	3433.15
749.303	3530.99
749.491	3532.74
749.68	3468.61
749.869	3553.66
750.057	3518.4
750.246	3487.6
750.434	3530.22
750.623	3522.66
750.811	3534.68
751	3506.58
751.188	3502.13
751.377	3518.98
751.565	3500.58
751.754	3492.05
751.942	3462.8
752.131	3557.93
752.319	3482.36
752.507	3532.74
752.696	3575.94
752.884	3517.82
753.072	3498.83
753.261	3508.71
753.449	3505.81
753.637	3452.33
753.825	3542.43
754.014	3525.76
754.202	3541.46
754.39	3560.83
754.578	3562.58
754.766	3497.28
754.955	3481.59
755.143	3523.63
755.331	3494.96
755.519	3514.91
755.707	3500.19
755.895	3494.96
756.083	3535.64
756.271	3438.77
756.459	3465.9
756.647	3512.59
756.835	3461.44
757.023	3464.93
757.211	3445.55
757.399	3437.41
757.587	3455.43
757.775	3383.75
757.963	3409.71
758.151	3440.51
758.339	3363.6
758.526	3369.99
758.714	3411.65
758.902	3243.09
759.09	3152.22
759.278	2989.08
759.465	2748.64
759.653	2381.69
759.841	2181.16
760.028	1841.91
760.216	1642.15
760.404	1538.3
760.591	1240.9
760.779	1074.09
760.967	914.05
761.154	790.44
761.342	773.2
761.529	785.6
761.717	810.59
761.905	830.35
762.092	881.5
762.28	819.11
762.467	831.32
762.655	805.17
762.842	778.04
763.029	781.33
763.217	808.85
763.404	806.33
763.592	826.67
763.779	795.48
763.966	853.8
764.154	874.72
764.341	945.05
764.528	932.46
764.716	1018.48
764.903	1048.71
765.09	1140.15
765.277	1196.15
765.465	1342.23
765.652	1380.59
765.839	1489.67
766.026	1620.07
766.213	1646.03
766.4	1779.91
766.588	1955.64
766.775	1972.1
766.962	2085.64
767.149	2200.73
767.336	2342.36
767.523	2273.58
767.71	2460.35
767.897	2523.7
768.084	2624.45
768.271	2612.63
768.458	2735.86
768.645	2778.09
768.832	2756.78
769.019	2767.82
769.206	2848.23
769.392	2915.07
769.579	3013.5
769.766	2923.21
769.953	2960.41
770.14	3014.46
770.327	3005.94
770.513	3069.1
770.7	3063.68
770.887	2967.38
771.073	3068.33
771.26	3080.14
771.447	3055.35
771.634	3061.35
771.82	3145.83
772.007	3070.65
772.193	3079.37
772.38	3106.3
772.567	3076.27
772.753	3098.36
772.94	3167.52
773.126	3104.17
773.313	3132.26
773.499	3127.81
773.686	3188.06
773.872	3058.06
774.059	3098.55
774.245	3042.95
774.432	3062.32
774.618	2991.02
774.804	3123.35
774.991	3012.33
775.177	3070.65
775.363	3076.27
775.55	3052.05
775.736	3017.95
775.922	3021.25
776.109	3028.61
776.295	3054.18
776.481	3059.03
776.667	3066.97
776.853	3036.16
777.04	3027.64
777.226	2992.77
777.412	3095.64
777.598	2971.65
777.784	2948.4
777.97	2973.97
778.156	2997.61
778.342	3009.62
778.528	2964.09
778.715	2921.27
778.901	2929.02
779.087	2946.27
779.272	2951.88
779.458	2875.16
779.644	2982.88
779.83	2913.33
780.016	3057.09
780.202	2952.27
780.388	2922.05
780.574	2837.19
780.76	2895.5
780.946	2904.61
781.131	2919.14
781.317	2864.31
781.503	2853.85
781.689	2878.65
781.874	2961.18
782.06	2856.75
782.246	2895.12
782.432	2859.85
782.617	2858.11
782.803	2890.85
782.989	2795.92
783.174	2840.87
783.36	2805.61
783.545	2798.24
783.731	2784.1
783.916	2734.89
784.102	2789.91
784.288	2749.03
784.473	2763.17
784.659	2712.8
784.844	2777.9
785.029	2766.08
785.215	2731.01
785.4	2667.08
785.586	2818
785.771	2697.69
785.956	2738.96
786.142	2669.4
786.327	2680.64
786.512	2752.71
786.698	2691.88
786.883	2602.95
787.068	2664.17
787.254	2653.51
787.439	2628.91
787.624	2650.22
787.809	2613.21
787.994	2629.88
788.18	2656.61
788.365	2574.85
788.55	2582.02
788.735	2586.28
788.92	2598.49
789.105	2584.15
789.29	2597.91
789.475	2506.07
789.66	2519.63
789.845	2518.47
790.03	2465.97
790.215	2543.47
790.4	2562.65
790.585	2593.84
790.77	2532.03
790.955	2470.62
791.14	2517.5
791.325	2592.1
791.51	2412.69
791.695	2493.67
791.879	2463.84
792.064	2452.02
792.249	2528.35
792.434	2476.62
792.618	2491.54
792.803	2531.07
792.988	2483.21
793.173	2481.08
793.357	2500.65
793.542	2438.45
793.727	2466.74
793.911	2537.46
794.096	2503.55
794.281	2539.59
794.465	2590.55
794.65	2499.1
794.834	2550.05
795.019	2556.25
795.203	2540.56
795.388	2601.01
795.572	2593.45
795.757	2540.37
795.941	2513.82
796.126	2490.77
796.31	2473.72
796.494	2519.63
796.679	2505.3
796.863	2444.07
797.048	2545.98
797.232	2559.16
797.416	2548.12
797.601	2517.12
797.785	2652.54
797.969	2597.13
798.153	2524.28
798.338	2596.36
798.522	2574.27
798.706	2591.51
798.89	2586.28
799.074	2682.19
799.258	2629.3
799.443	2597.71
799.627	2559.55
799.811	2596.16
799.995	2555.67
800.179	2567.3
800.363	2570.4
800.547	2530.48
800.731	2586.09
800.915	2503.94
801.099	2512.66
801.283	2563.03
801.467	2560.51
801.651	2533.78
801.835	2582.8
802.019	2534.94
802.202	2558.19
802.386	2482.82
802.57	2513.05
802.754	2493.09
802.938	2508.01
803.121	2481.47
803.305	2556.25
803.489	2522.93
803.673	2589.96
803.856	2548.89
804.04	2495.03
804.224	2558.77
804.407	2506.65
804.591	2499.1
804.775	2511.3
804.958	2539.2
805.142	2627.36
805.326	2555.86
805.509	2515.37
805.693	2572.91
805.876	2573.11
806.06	2575.43
806.243	2569.62
806.427	2613.02
806.61	2596.55
806.794	2527.38
806.977	2584.73
807.16	2586.86
807.344	2580.08
807.527	2595
807.71	2528.93
807.894	2553.73
808.077	2587.83
808.26	2538.82
808.444	2485.92
808.627	2568.26
808.81	2450.85
808.993	2463.06
809.177	2451.82
809.36	2456.09
809.543	2463.64
809.726	2350.49
809.909	2405.52
810.092	2373.16
810.276	2404.35
810.459	2412.3
810.642	2333.83
810.825	2357.66
811.008	2353.01
811.191	2242.19
811.374	2301.86
811.557	2262.92
811.74	2345.46
811.923	2245.29
812.106	2239.28
812.289	2176.51
812.472	2188.33
812.654	2195.88
812.837	2173.6
813.02	2098.04
813.203	2076.53
813.386	1976.56
813.569	1993.61
813.751	1958.74
813.934	1978.89
814.117	1915.34
814.3	1901.97
814.482	1832.8
814.665	1794.83
814.848	1787.85
815.03	1729.53
815.213	1749.1
815.396	1706.28
815.578	1683.23
815.761	1658.82
815.943	1683.81
816.126	1634.6
816.309	1579.19
816.491	1525.32
816.674	1513.7
816.856	1550.32
817.039	1569.11
817.221	1604.76
817.403	1576.67
817.586	1566.98
817.768	1567.17
817.951	1512.54
818.133	1487.35
818.315	1499.56
818.498	1582.67
818.68	1617.93
818.862	1595.65
819.045	1627.43
819.227	1610.18
819.409	1576.28
819.591	1586.35
819.774	1596.23
819.956	1576.09
820.138	1642.93
820.32	1667.34
820.502	1688.07
820.684	1765.57
820.866	1778.55
821.048	1795.02
821.231	1800.83
821.413	1794.63
821.595	1792.89
821.777	1789.98
821.959	1767.7
822.141	1820.4
822.323	1680.9
822.505	1674.12
822.686	1564.07
822.868	1517.57
823.05	1400.36
823.232	1406.36
823.414	1340.1
823.596	1405.2
823.778	1413.73
823.96	1454.61
824.141	1437.36
824.323	1452.67
824.505	1552.84
824.687	1586.74
824.868	1629.95
825.05	1751.23
825.232	1745.81
825.413	1809.55
825.595	1782.81
825.777	1706.67
825.958	1749.49
826.14	1759.37
826.321	1730.11
826.503	1740.96
826.685	1794.44
826.866	1773.9
827.048	1753.75
827.229	1681.48
827.411	1694.66
827.592	1641.77
827.773	1590.04
827.955	1593.72
828.136	1599.72
828.318	1560
828.499	1605.73
828.68	1542.57
828.862	1575.5
829.043	1586.55
829.224	1551.48
829.406	1552.64
829.587	1555.74
829.768	1577.64
829.949	1565.62
830.131	1574.34
830.312	1613.87
830.493	1582.67
830.674	1610.77
830.855	1555.55
831.036	1579.96
831.218	1645.64
831.399	1626.27
831.58	1597.01
831.761	1614.45
831.942	1600.69
832.123	1586.35
832.304	1534.82
832.485	1528.42
832.666	1558.07
832.847	1604.76
833.028	1573.18
833.209	1606.31
833.389	1541.6
833.57	1536.75
833.751	1547.6
833.932	1609.22
834.113	1599.33
834.294	1550.32
834.475	1584.22
834.655	1636.92
834.836	1639.44
835.017	1632.27
835.198	1575.7
835.378	1613.48
835.559	1666.37
835.74	1600.3
835.92	1605.53
836.101	1583.25
836.281	1628.98
836.462	1601.47
836.643	1633.43
836.823	1665.02
837.004	1653.39
837.184	1708.41
837.365	1672.96
837.545	1682.65
837.726	1678.58
837.906	1702.21
838.087	1682.84
838.267	1668.31
838.448	1631.69
838.628	1652.03
838.808	1663.66
838.989	1696.98
839.169	1633.82
839.349	1675.28
839.53	1665.6
839.71	1706.09
839.89	1663.08
840.07	1699.89
840.251	1652.81
840.431	1684
840.611	1663.85
840.791	1652.03
840.971	1677.22
841.151	1638.67
841.332	1632.47
841.512	1665.79
841.692	1607.47
841.872	1640.22
842.052	1631.3
842.232	1639.44
842.412	1591.2
842.592	1642.93
842.772	1678.38
842.952	1689.04
843.132	1613.67
843.312	1579.96
843.492	1610.18
843.672	1648.35
843.851	1580.15
844.031	1622
844.211	1597.2
844.391	1605.15
844.571	1622.2
844.751	1630.33
844.93	1637.89
845.11	1580.74
845.29	1618.9
845.47	1647.58
845.649	1624.72
845.829	1647
846.009	1584.61
846.188	1620.07
846.368	1565.04
846.547	1591.97
846.727	1642.93
846.907	1557.68
847.086	1613.87
847.266	1623.75
847.445	1563.1
847.625	1590.62
847.804	1540.63
847.984	1575.89
848.163	1533.46
848.343	1560.39
848.522	1586.35
848.701	1578.99
848.881	1544.5
849.06	1553.22
849.239	1538.3
849.419	1540.05
849.598	1488.71
849.777	1463.52
849.957	1497.62
850.136	1442.4
850.315	1423.99
850.494	1397.06
850.674	1453.64
850.853	1461.77
851.032	1456.93
851.211	1475.92
851.39	1500.14
851.569	1430
851.748	1396.87
851.927	1506.72
852.107	1455.38
852.286	1419.93
852.465	1392.8
852.644	1473.21
852.823	1428.45
853.002	1442.21
853.181	1448.21
853.359	1448.02
853.538	1380.59
853.717	1470.3
853.896	1365.87
854.075	1308.91
854.254	1281.59
854.433	1241.48
854.611	1257.95
854.79	1159.33
854.969	1258.15
855.148	1277.91
855.327	1273.06
855.505	1333.32
855.684	1287.79
855.863	1346.3
856.041	1318.21
856.22	1365.87
856.399	1294.38
856.577	1402.1
856.756	1403.26
856.934	1515.44
857.113	1496.46
857.291	1418.18
857.47	1370.71
857.648	1389.7
857.827	1412.18
858.005	1462.16
858.184	1367.23
858.362	1440.46
858.541	1413.53
858.719	1374.78
858.898	1386.21
859.076	1361.99
859.254	1433.29
859.433	1362.19
859.611	1342.62
859.789	1326.54
859.967	1430
860.146	1431.74
860.324	1336.23
860.502	1339.13
860.68	1274.81
860.859	1343.78
861.037	1361.22
861.215	1368.97
861.393	1367.81
861.571	1349.98
861.749	1322.86
861.927	1340.49
862.105	1342.04
862.283	1321.11
862.461	1310.85
862.639	1275.97
862.817	1328.09
862.995	1349.79
863.173	1265.31
863.351	1305.61
863.529	1312.98
863.707	1340.29
863.885	1312.59
864.063	1273.45
864.241	1271.13
864.418	1328.28
864.596	1286.24
864.774	1244.97
864.952	1305.61
865.129	1290.5
865.307	1240.52
865.485	1192.85
865.663	1298.64
865.84	1181.81
866.018	1224.43
866.196	1085.71
866.373	1108.96
866.551	1138.41
866.728	1054.52
866.906	1109.35
867.084	1113.22
867.261	1164.18
867.439	1161.85
867.616	1173.28
867.794	1149.45
867.971	1172.7
868.149	1150.04
868.326	1199.25
868.503	1207.58
868.681	1193.43
868.858	1181.42
869.035	1164.57
869.213	1194.21
869.39	1177.35
869.567	1277.71
869.745	1167.08
869.922	1201.96
870.099	1250.78
870.276	1229.28
870.454	1214.17
870.631	1196.92
870.808	1160.69
870.985	1221.53
871.162	1243.62
871.339	1212.42
871.517	1133.95
871.694	1111.48
871.871	1186.65
872.048	1158.75
872.225	1142.67
872.402	1170.38
872.579	1131.24
872.756	1156.82
872.933	1078.54
873.11	1152.55
873.287	1138.8
873.463	1138.99
873.64	1116.52
873.817	1148.1
873.994	1119.42
874.171	1105.47
874.348	1159.33
874.524	1071.95
874.701	1109.93
874.878	1067.31
875.055	1113.61
875.231	1107.8
875.408	1110.32
875.585	1041.34
875.762	1130.66
875.938	1095.98
876.115	1079.51
876.291	1071.57
876.468	1060.72
876.645	1035.34
876.821	1050.64
876.998	1063.43
877.174	1101.6
877.351	1044.83
877.527	1052.97
877.704	1040.18
877.88	1046.96
878.057	1004.34
878.233	1097.14
878.409	1046.96
878.586	1076.8
878.762	1064.01
878.938	1050.45
879.115	971.01
879.291	1040.57
879.467	1006.66
879.644	1033.21
879.82	1047.93
879.996	1015.19
880.172	952.8
880.349	1013.83
880.525	1013.44
880.701	961.13
880.877	975.08
881.053	987.09
881.229	999.49
881.405	1052.97
881.581	997.36
881.757	981.09
881.933	1010.15
882.109	1058.39
882.285	1006.47
882.461	959.19
882.637	1003.17
882.813	942.53
882.989	981.28
883.165	1038.82
883.341	1002.21
883.517	1012.86
883.693	977.79
883.869	1032.82
884.044	981.86
884.22	1023.52
884.396	1024.1
884.572	1027.2
884.747	1021.58
884.923	1041.73
885.099	990.19
885.275	1040.57
885.45	960.55
885.626	966.75
885.801	986.12
885.977	991.55
886.153	946.21
886.328	978.38
886.504	1008.21
886.679	1028.56
886.855	935.17
887.03	995.23
887.206	1032.43
887.381	985.74
887.557	1007.05
887.732	1010.34
887.908	1037.08
888.083	1024.29
888.258	967.91
888.434	950.28
888.609	965.39
888.784	999.69
888.96	944.66
889.135	978.96
889.31	944.66
889.485	971.4
889.661	969.08
889.836	1009.96
890.011	1005.69
890.186	986.32
890.361	990.19
890.537	994.65
890.712	996.59
890.887	1009.76
891.062	980.89
891.237	1052.77
891.412	927.23
891.587	1009.57
891.762	1011.31
891.937	1022.55
892.112	953.96
892.287	1000.27
892.462	919.28
892.637	897.19
892.812	897
892.987	900.29
893.161	893.32
893.336	899.13
893.511	893.13
893.686	912.5
893.861	901.26
894.035	897
894.21	881.7
894.385	818.73
894.56	865.23
894.734	814.85
894.909	838.49
895.084	811.17
895.258	804.58
895.433	815.05
895.608	782.5
895.782	722.82
895.957	767.19
896.131	763.32
896.306	710.23
896.48	698.6
896.655	693.18
896.829	628.27
897.004	627.11
897.178	663.34
897.353	631.57
897.527	699.77
897.701	666.05
897.876	624.01
898.05	703.64
898.224	659.66
898.399	688.72
898.573	646.29
898.747	545.35
898.921	598.63
899.096	511.06
899.27	528.49
899.444	522.88
899.618	550.77
899.792	573.44
899.967	564.53
900.141	627.31
900.315	548.84
900.489	577.9
900.663	607.16
900.837	570.73
901.011	486.45
901.185	629.24
901.359	585.84
901.533	586.81
901.707	594.37
901.881	572.86
902.055	535.08
902.229	563.17
902.403	607.74
902.576	580.22
902.75	555.62
902.924	688.72
903.098	622.66
903.272	671.48
903.446	696.67
903.619	670.9
903.793	697.05
903.967	688.53
904.14	723.4
904.314	722.63
904.488	707.71
904.661	734.64
904.835	691.82
905.009	761.57
905.182	788.7
905.356	755.37
905.529	732.51
905.703	681.17
905.876	674.58
906.05	644.35
906.223	628.66
906.397	604.44
906.57	583.13
906.744	581.39
906.917	549.81
907.09	567.82
907.264	572.28
907.437	566.08
907.61	498.08
907.784	550.39
907.957	545.54
908.13	474.44
908.304	532.37
908.477	511.25
908.65	493.62
908.823	492.65
908.996	585.07
909.17	517.06
909.343	498.08
909.516	488.19
909.689	488.58
909.862	466.11
910.035	504.47
910.208	511.64
910.381	481.8
910.554	556.97
910.727	489.16
910.9	491.68
911.073	483.93
911.246	550.77
911.419	546.12
911.592	536.63
911.765	480.64
911.938	509.7
912.11	510.67
912.283	499.82
912.456	540.51
912.629	503.31
912.802	479.28
912.974	447.51
913.147	391.9
913.32	371.37
913.493	397.91
913.665	405.27
913.838	468.24
914.01	388.61
914.183	442.86
914.356	426.58
914.528	474.44
914.701	531.98
914.873	481.99
915.046	424.06
915.218	394.81
915.391	339.2
915.563	370.59
915.736	407.01
915.908	415.54
916.081	435.88
916.253	427.75
916.425	424.84
916.598	471.73
916.77	429.49
916.942	424.65
917.115	349.86
917.287	409.73
917.459	395.97
917.632	358.97
917.804	328.35
917.976	395.78
918.148	412.25
918.32	416.9
918.493	429.49
918.665	475.21
918.837	436.46
919.009	461.26
919.181	498.66
919.353	465.14
919.525	459.13
919.697	463.2
919.869	452.16
920.041	540.89
920.213	555.42
920.385	501.37
920.557	459.52
920.729	500.98
920.901	484.71
921.073	451.19
921.244	457
921.416	494.39
921.588	466.3
921.76	444.41
921.932	508.73
922.103	460.29
922.275	466.3
922.447	461.84
922.619	404.88
922.79	457.39
922.962	415.73
923.134	485.29
923.305	382.02
923.477	395.58
923.648	402.56
923.82	412.05
923.991	354.7
924.163	356.64
924.335	389.58
924.506	378.15
924.677	425.23
924.849	380.47
925.02	403.33
925.192	409.34
925.363	365.17
925.535	419.22
925.706	388.03
925.877	411.86
926.049	361.87
926.22	389.96
926.391	393.45
926.562	432.59
926.734	355.48
926.905	395.58
927.076	343.66
927.247	366.72
927.419	331.26
927.59	292.9
927.761	341.33
927.932	309.95
928.103	316.34
928.274	273.14
928.445	275.27
928.616	299.48
928.787	275.65
928.958	293.48
929.129	273.14
929.3	288.44
929.471	203.19
929.642	164.25
929.813	164.83
929.984	260.54
930.155	160.37
930.326	222.37
930.496	181.11
930.667	147.59
930.838	172.77
931.009	117.94
931.18	147.78
931.35	140.03
931.521	175.1
931.692	94.69
931.863	62.34
932.033	126.08
932.204	122.4
932.374	122.01
932.545	88.69
932.716	115.62
932.886	110.58
933.057	40.83
933.227	72.61
933.398	121.04
933.568	45.87
933.739	19.91
933.909	40.83
934.08	79
934.25	7.12
934.421	31.53
934.591	45.48
934.761	50.13
934.932	-5.47
935.102	70.86
935.272	47.23
935.443	54.78
935.613	39.09
935.783	82.49
935.953	-7.02
936.123	158.63
936.294	13.51
936.464	23.98
936.634	32.11
936.804	19.71
936.974	-3.34
937.144	40.44
937.314	54.01
937.484	20.3
937.655	3.63
937.825	58.85
937.995	23.39
938.165	76.09
938.334	26.69
938.504	52.46
938.674	23.98
938.844	77.06
939.014	97.6
939.184	81.33
939.354	129.96
939.524	122.98
939.694	85.59
939.863	65.83
940.033	162.12
940.203	112.91
940.373	109.22
940.542	103.99
940.712	90.24
940.882	101.48
941.051	137.51
941.221	114.07
941.391	141.97
941.56	75.13
941.73	87.33
941.899	186.53
942.069	93.92
942.238	107.48
942.408	59.24
942.577	132.67
942.747	104.19
942.916	35.41
943.086	58.08
943.255	108.06
943.425	86.94
943.594	65.05
943.763	1.31
943.933	61.18
944.102	-1.4
944.271	41.61
944.441	73.58
944.61	50.52
944.779	78.23
944.948	138.67
945.117	27.85
945.287	38.89
945.456	22.62
945.625	43.93
945.794	71.25
945.963	41.22
946.132	75.13
946.301	77.26
946.47	89.46
946.639	18.16
946.808	42.19
946.977	68.73
947.146	116.01
947.315	70.67
947.484	112.32
947.653	48.39
947.822	29.79
947.991	40.83
948.16	124.92
948.329	114.84
948.498	67.38
948.666	78.42
948.835	100.31
949.004	45.68
949.173	48
949.341	73.96
949.51	70.09
949.679	125.69
949.847	95.28
950.016	118.91
950.185	96.44
950.353	49.36
950.522	71.64
950.69	103.41
950.859	74.35
951.028	116.59
951.196	92.18
951.365	51.88
951.533	66.6
951.701	61.56
951.87	63.89
952.038	29.4
952.207	39.09
952.375	109.03
952.543	55.36
952.712	55.94
952.88	51.49
953.048	124.53
953.217	74.16
953.385	66.6
953.553	107.09
953.721	34.24
953.89	77.84
954.058	41.8
954.226	37.34
954.394	83.07
954.562	32.11
954.73	79.19
954.898	69.51
955.067	86.17
955.235	51.68
955.403	94.31
955.571	111.36
955.739	104.38
955.907	54.01
956.075	72.8
956.243	45.87
956.41	82.49
956.578	23.2
956.746	18.16
956.914	55.56
957.082	93.14
957.25	76.48
957.418	41.22
957.585	75.32
957.753	132.47
957.921	36.57
958.089	59.24
958.256	75.71
958.424	83.84
958.592	95.08
958.759	56.14
958.927	79.58
959.095	43.16
959.262	76.48
959.43	67.57
959.597	46.26
959.765	44.9
959.932	25.33
960.1	122.01
960.267	93.14
960.435	91.79
960.602	110.39
960.77	67.38
960.937	14.29
961.104	58.66
961.272	-0.24
961.439	61.56
961.606	102.44
961.774	91.79
961.941	54.98
962.108	88.11
962.275	73.58
962.443	110
962.61	77.26
962.777	152.04
962.944	92.18
963.111	107.09
963.278	119.49
963.446	85.59
963.613	71.83
963.78	124.72
963.947	96.83
964.114	81.71
964.281	166.38
964.448	103.8
964.615	56.33
964.782	91.79
964.949	111.55
965.116	86.56
965.282	128.41
965.449	82.1
965.616	73.38
965.783	120.66
965.95	110.97
966.117	70.28
966.283	65.24
966.45	84.43
966.617	109.81
966.784	124.53
966.95	134.99
967.117	155.53
967.284	62.14
967.45	68.54
967.617	140.42
967.784	111.55
967.95	166.19
968.117	109.03
968.283	151.85
968.45	173.16
968.616	135.77
968.783	146.23
968.949	132.86
969.116	163.67
969.282	136.16
969.449	131.89
969.615	117.75
969.781	64.08
969.948	96.63
970.114	89.85
970.28	141.97
970.447	129.96
970.613	161.92
970.779	120.27
970.945	113.29
971.112	128.99
971.278	104.77
971.444	98.76
971.61	140.42
971.776	74.93
971.942	133.44
972.108	158.24
972.275	111.74
972.441	101.86
972.607	176.46
972.773	106.32
972.939	131.51
973.105	97.99
973.271	74.35
973.437	107.48
973.602	89.66
973.768	126.47
973.934	102.06
974.1	105.93
974.266	34.24
974.432	131.89
974.598	82.29
974.763	119.88
974.929	83.46
975.095	165.02
975.261	58.46
975.426	61.37
975.592	89.46
975.758	162.89
975.923	36.57
976.089	72.03
976.255	120.66
976.42	119.11
976.586	104.96
976.751	108.45
976.917	202.22
977.082	117.56
977.248	48.78
977.413	54.2
977.579	76.87
977.744	100.12
977.91	52.07
978.075	81.91
978.24	107.09
978.406	95.08
978.571	75.71
978.736	65.05
978.902	97.99
979.067	60.98
979.232	45.09
979.397	93.34
979.563	129.18
979.728	78.81
979.893	81.13
980.058	71.44
980.223	111.36
980.388	111.55
980.554	100.31
980.719	70.86
980.884	92.37
981.049	114.84
981.214	91.59
981.379	85.98
981.544	84.04
981.709	99.34
981.874	79.97
982.039	95.47
982.204	107.09
982.368	89.08
982.533	53.81
982.698	148.17
982.863	131.31
983.028	60.98
983.193	83.84
983.357	93.53
983.522	81.33
983.687	86.56
983.852	71.44
984.016	75.9
984.181	89.08
984.346	94.89
984.51	107.68
984.675	115.81
984.839	96.44
985.004	98.38
985.168	127.44
985.333	104.38
985.498	85.98
985.662	99.15
985.827	119.49
985.991	99.93
986.155	78.23
986.32	126.86
986.484	162.51
986.649	97.21
986.813	41.99
986.977	134.02
987.142	120.46
987.306	66.02
987.47	47.81
987.634	81.91
987.799	86.36
987.963	126.27
988.127	105.16
988.291	164.44
988.455	106.71
988.62	69.51
988.784	105.16
988.948	103.8
989.112	58.27
989.276	82.29
989.44	77.26
989.604	74.16
989.768	54.39
989.932	147.78
990.096	75.9
990.26	62.14
990.424	43.54
990.588	88.3
990.752	129.96
990.915	126.47
991.079	77.45
991.243	75.51
991.407	110.77
991.571	96.83
991.734	101.28
991.898	94.5
992.062	143.71
992.226	75.32
992.389	61.76
992.553	33.66
992.717	78.81
992.88	78.42
993.044	69.31
993.207	71.06
993.371	114.07
993.535	127.24
993.698	88.3
993.862	103.61
994.025	103.61
994.189	93.92
994.352	96.63
994.515	117.56
994.679	100.12
994.842	75.51
995.006	103.8
995.169	33.86
995.332	66.21
995.496	110.58
995.659	28.04
995.822	58.66
995.985	55.75
996.149	109.81
996.312	91.59
996.475	126.86
996.638	51.68
996.801	121.04
996.964	114.46
997.128	58.85
997.291	71.25
997.454	84.23
997.617	43.93
997.78	94.11
997.943	67.18
998.106	113.68
998.269	56.72
998.432	50.33
998.595	90.63
998.758	33.86
998.92	54.39
999.083	22.81
999.246	60.98
999.409	39.86
999.572	-4.31
999.735	36.96
999.897	72.99
1000.06	56.53
1000.223	65.24
1000.386	85.78
1000.548	81.13
1000.711	66.6
1000.874	87.91
1001.036	24.56
1001.199	119.69
1001.361	45.87
1001.524	79.97
1001.687	91.98
1001.849	54.98
1002.012	80.16
1002.174	73.58
1002.337	91.59
1002.499	65.44
1002.661	122.59
1002.824	22.62
1002.986	51.88
1003.149	52.46
1003.311	22.62
1003.473	87.91
1003.636	40.44
1003.798	65.24
1003.96	60.98
1004.123	51.88
1004.285	39.09
1004.447	46.06
1004.609	47.42
1004.771	91.98
1004.933	15.06
1005.096	35.41
1005.258	8.09
1005.42	33.66
1005.582	97.6
1005.744	60.01
1005.906	18.55
1006.068	88.49
1006.23	29.79
1006.392	9.83
1006.554	53.23
1006.716	75.32
1006.878	52.84
1007.04	5.18
1007.202	45.48
1007.363	74.16
1007.525	46.45
1007.687	79
1007.849	80.16
1008.011	15.84
1008.172	5.38
1008.334	37.54
1008.496	77.26
1008.658	-7.99
1008.819	19.33
1008.981	7.51
1009.143	25.53
1009.304	0.92
1009.466	71.44
1009.627	93.34
1009.789	127.63
1009.95	51.49
1010.112	23.01
1010.273	57.69
1010.435	40.83
1010.596	20.68
1010.758	31.92
1010.919	30.76
1011.081	8.09
1011.242	54.59
1011.403	68.15
1011.565	33.86
1011.726	50.52
1011.887	17.97
1012.049	27.85
1012.21	55.75
1012.371	87.72
1012.532	-45.19
1012.693	37.54
1012.855	-2.37
1013.016	59.43
1013.177	68.34
1013.338	35.02
1013.499	111.94
1013.66	55.75
1013.821	52.26
1013.982	54.59
1014.143	49.74
1014.304	15.84
1014.465	34.24
1014.626	60.79
1014.787	21.65
1014.948	111.55
1015.109	-17.49
1015.27	56.91
1015.431	17
1015.592	4.6
1015.752	81.71
1015.913	58.66
1016.074	45.29
1016.235	24.56
1016.395	2.28
1016.556	38.89
1016.717	34.05
1016.877	64.28
1017.038	3.05
1017.199	59.63
1017.359	46.45
1017.52	45.09
1017.681	-0.44
1017.841	33.47
1018.002	18.55
1018.162	16.23
1018.323	92.37
1018.483	22.04
1018.644	36.96
1018.804	4.41
1018.964	-7.22
1019.125	18.75
1019.285	10.61
1019.446	15.45
1019.606	8.67
1019.766	-0.82
1019.926	40.25
1020.087	39.86
1020.247	-14.39
1020.407	35.79
1020.567	56.14
1020.728	21.07
1020.888	-12.64
1021.048	-2.37
1021.208	-5.28
1021.368	18.94
1021.528	68.15
1021.688	60.21
1021.848	52.07
1022.008	17.97
1022.168	3.05
1022.328	56.33
1022.488	40.25
1022.648	7.51
1022.808	15.26
1022.968	56.14
1023.128	20.3
1023.288	-3.15
1023.448	20.3
1023.608	46.06
1023.767	54.39
1023.927	6.54
1024.087	-12.25
1024.247	-27.56
1024.406	24.17
1024.566	-4.89
1024.726	5.18
1024.885	31.73
1025.045	46.26
1025.205	33.08
1025.364	26.3
1025.524	37.54
1025.683	25.91
1025.843	21.84
1026.003	42.96
1026.162	64.66
1026.321	50.91
1026.481	61.37
1026.64	17.58
1026.8	14.29
1026.959	43.74
1027.119	45.68
1027.278	21.65
1027.437	13.51
1027.597	1.11
1027.756	45.68
1027.915	31.34
1028.074	45.09
1028.234	-30.66
1028.393	8.48
1028.552	-4.89
1028.711	-53.72
1028.87	48.19
1029.03	-15.16
1029.189	-0.82
1029.348	-38.41
1029.507	21.84
1029.666	4.02
1029.825	-1.4
1029.984	-8.19
1030.143	23.2
1030.302	6.15
1030.461	-24.07
1030.62	18.55
1030.779	46.64
1030.938	-30.85
1031.097	-8.38
1031.255	43.93
1031.414	62.53
1031.573	34.44
1031.732	-20.78
1031.891	0.15
1032.049	48.97
1032.208	4.99
1032.367	5.38
1032.525	-19.04
1032.684	-2.37
1032.843	28.24
1033.001	-38.8
1033.16	143.71
1033.319	34.83
1033.477	37.93
1033.636	-1.6
1033.794	-37.64
1033.953	19.52
1034.111	31.53
1034.27	12.35
1034.428	35.21
1034.587	-15.94
1034.745	23.39
1034.903	19.13
1035.062	32.89
1035.22	-9.54
1035.378	46.64
1035.537	-15.55
1035.695	66.21
1035.853	30.95
1036.011	43.74
1036.17	26.88
1036.328	-33.95
1036.486	25.33
1036.644	38.12
1036.802	-25.04
1036.96	13.32
1037.119	-6.83
1037.277	-13.8
1037.435	-17.1
1037.593	-18.26
1037.751	-1.02
1037.909	40.64
1038.067	40.64
