Data from oakcork_FLMT105791__218__17-32-49-055.txt Node

Date: Mon Mar 20 17:32:49 GMT 2023
User: antho
Spectrometer: FLMT10579
Trigger mode: 0
Integration Time (sec): 1.000000E-1
Scans to average: 10
Electric dark correction enabled: true
Nonlinearity correction enabled: false
Boxcar width: 0
XAxis mode: Wavelengths
Number of Pixels in Spectrum: 3648
>>>>>Begin Spectral Data<<<<<
345.248	-146.28
345.464	-146.28
345.681	-146.28
345.898	-153.25
346.114	-148.99
346.331	-48.05
346.548	31.77
346.764	5.04
346.981	-24.99
347.197	-4.46
347.414	11.24
347.631	-21.89
347.847	62.97
348.064	13.95
348.28	25.38
348.497	-42.82
348.713	-8.14
348.93	18.21
349.146	17.82
349.363	-7.36
349.579	40.11
349.796	0.77
350.012	-31.77
350.229	17.05
350.445	0.97
350.661	-6.78
350.878	-1.16
351.094	8.52
351.311	12.4
351.527	19.37
351.743	-8.91
351.96	28.29
352.176	58.32
352.392	27.71
352.609	37.01
352.825	-34.68
353.041	0.19
353.257	-19.57
353.474	28.87
353.69	24.8
353.906	12.01
354.122	-19.96
354.339	37.97
354.555	13.37
354.771	-6.78
354.987	60.45
355.203	29.06
355.42	-15.5
355.636	18.02
355.852	-8.52
356.068	22.09
356.284	-26.93
356.5	60.64
356.716	20.73
356.932	-12.79
357.148	51.92
357.364	0.77
357.58	43.59
357.796	39.33
358.012	51.34
358.228	29.26
358.444	-40.69
358.66	47.27
358.876	29.26
359.092	-4.46
359.308	39.91
359.524	30.03
359.74	11.82
359.956	29.45
360.172	0
360.388	39.14
360.604	-11.43
360.819	73.82
361.035	31.19
361.251	38.75
361.467	-14.34
361.683	55.41
361.898	8.91
362.114	32.94
362.33	24.41
362.546	55.41
362.762	-6.59
362.977	16.86
363.193	-5.42
363.409	65.1
363.624	-0.58
363.84	-15.5
364.056	-2.13
364.271	30.42
364.487	9.11
364.703	5.62
364.918	-22.47
365.134	18.99
365.35	-17.05
365.565	108.89
365.781	17.82
365.996	27.12
366.212	62.77
366.427	15.5
366.643	-0.58
366.858	16.08
367.074	2.13
367.289	66.84
367.505	114.5
367.72	-27.9
367.936	-10.66
368.151	35.07
368.367	39.72
368.582	11.43
368.798	16.27
369.013	49.79
369.228	14.72
369.444	17.63
369.659	55.41
369.874	47.27
370.09	71.69
370.305	-26.16
370.52	-6.01
370.736	61.42
370.951	28.87
371.166	83.89
371.381	64.32
371.597	41.85
371.812	-32.16
372.027	14.53
372.242	21.89
372.458	91.06
372.673	13.37
372.888	28.87
373.103	34.1
373.318	99
373.533	34.87
373.749	37.01
373.964	-30.61
374.179	52.7
374.394	-11.24
374.609	69.56
374.824	-4.26
375.039	37.59
375.254	27.12
375.469	92.22
375.684	36.23
375.899	43.21
376.114	7.75
376.329	34.49
376.544	51.54
376.759	38.36
376.974	26.35
377.189	8.33
377.404	1.74
377.619	63.36
377.834	-35.07
378.049	-28.09
378.264	10.07
378.478	36.81
378.693	5.04
378.908	55.22
379.123	3.87
379.338	62.39
379.553	22.67
379.767	38.56
379.982	40.69
380.197	59.87
380.412	28.67
380.626	53.86
380.841	91.64
381.056	57.74
381.271	93.77
381.485	-2.52
381.7	23.83
381.915	48.05
382.129	25.57
382.344	41.85
382.559	16.08
382.773	50.57
382.988	-20.92
383.202	44.17
383.417	6.97
383.632	86.41
383.846	-3.68
384.061	34.29
384.275	19.57
384.49	65.87
384.704	52.51
384.919	16.86
385.133	25.57
385.348	36.23
385.562	-4.84
385.777	77.31
385.991	52.89
386.206	52.12
386.42	13.17
386.634	69.94
386.849	59.67
387.063	56.57
387.277	-17.44
387.492	28.29
387.706	-11.82
387.92	-12.79
388.135	63.94
388.349	33.13
388.563	52.31
388.778	40.3
388.992	69.75
389.206	49.99
389.42	105.98
389.635	23.06
389.849	56.77
390.063	79.63
390.277	43.21
390.491	111.21
390.706	42.43
390.92	73.04
391.134	53.09
391.348	43.98
391.562	-15.5
391.776	27.32
391.99	23.64
392.205	81.57
392.419	4.65
392.633	38.17
392.847	86.99
393.061	28.87
393.275	101.33
393.489	43.21
393.703	51.15
393.917	66.07
394.131	-7.75
394.345	51.92
394.559	62.77
394.773	16.47
394.986	69.17
395.2	42.62
395.414	51.73
395.628	13.37
395.842	54.44
396.056	42.43
396.27	21.7
396.484	65.49
396.697	49.99
396.911	72.46
397.125	41.46
397.339	85.25
397.553	67.62
397.766	113.15
397.98	74.59
398.194	83.51
398.408	55.02
398.621	60.26
398.835	73.62
399.049	55.22
399.262	122.84
399.476	87.19
399.69	70.14
399.903	129.62
400.117	42.82
400.331	90.09
400.544	53.09
400.758	173.79
400.971	80.21
401.185	87.57
401.398	76.72
401.612	109.08
401.826	99
402.039	99.78
402.253	39.52
402.466	102.1
402.68	59.29
402.893	89.32
403.106	79.24
403.32	83.89
403.533	80.21
403.747	79.05
403.96	83.31
404.174	130.78
404.387	28.67
404.6	61.22
404.814	136.4
405.027	53.09
405.24	59.29
405.454	71.49
405.667	126.32
405.88	59.09
406.094	99.97
406.307	117.02
406.52	96.87
406.733	63.94
406.947	39.91
407.16	148.6
407.373	122.45
407.586	50.76
407.799	62.97
408.012	89.9
408.226	118.57
408.439	125.94
408.652	54.64
408.865	114.31
409.078	116.05
409.291	101.72
409.504	58.12
409.717	84.67
409.93	90.48
410.143	99.97
410.357	35.84
410.57	60.84
410.783	80.6
410.996	93.97
411.209	69.75
411.421	143.57
411.634	86.61
411.847	65.87
412.06	100.55
412.273	74.98
412.486	104.82
412.699	161.39
412.912	97.84
413.125	147.64
413.338	85.06
413.55	111.4
413.763	115.47
413.976	98.81
414.189	84.28
414.402	77.69
414.615	112.95
414.827	76.53
415.04	129.62
415.253	105.4
415.466	145.12
415.678	148.6
415.891	85.06
416.104	92.61
416.316	103.27
416.529	65.68
416.742	145.5
416.954	138.92
417.167	110.82
417.38	83.12
417.592	126.13
417.805	85.25
418.017	53.67
418.23	119.93
418.442	88.15
418.655	77.89
418.868	104.82
419.08	137.95
419.293	127.49
419.505	124.58
419.718	120.32
419.93	130.97
420.142	98.62
420.355	147.05
420.567	147.64
420.78	137.95
420.992	114.12
421.205	130.78
421.417	70.14
421.629	104.82
421.842	82.15
422.054	71.88
422.266	142.4
422.479	159.45
422.691	100.17
422.903	147.44
423.115	96.87
423.328	139.5
423.54	116.44
423.752	69.36
423.964	105.2
424.177	133.1
424.389	120.12
424.601	217.19
424.813	133.49
425.025	154.8
425.238	138.92
425.45	114.7
425.662	111.02
425.874	387.11
426.086	100.94
426.298	124.97
426.51	131.36
426.722	121.29
426.934	106.75
427.146	139.11
427.358	91.25
427.57	143.57
427.782	114.31
427.994	101.14
428.206	114.12
428.418	61.42
428.63	149.57
428.842	161
429.054	123.03
429.266	181.54
429.478	125.74
429.69	146.47
429.902	56.77
430.114	151.51
430.325	131.55
430.537	95.71
430.749	111.6
430.961	71.49
431.173	97.07
431.384	142.21
431.596	71.49
431.808	97.84
432.02	120.12
432.231	148.22
432.443	179.22
432.655	169.34
432.867	84.28
433.078	146.47
433.29	206.34
433.502	136.59
433.713	181.54
433.925	165.46
434.136	159.07
434.348	122.06
434.56	86.22
434.771	239.86
434.983	84.47
435.194	98.42
435.406	143.95
435.617	183.87
435.829	210.8
436.04	198.98
436.252	172.24
436.463	194.72
436.675	189.29
436.886	171.08
437.098	211.38
437.309	224.94
437.521	179.22
437.732	141.44
437.943	180.96
438.155	181.93
438.366	134.46
438.578	220.87
438.789	169.14
439	187.16
439.211	157.71
439.423	182.12
439.634	174.18
439.845	205.76
440.057	189.87
440.268	195.68
440.479	174.95
440.69	175.34
440.902	151.32
441.113	177.86
441.324	154.42
441.535	211.38
441.746	228.43
441.957	179.99
442.168	202.47
442.38	200.72
442.591	194.13
442.802	174.95
443.013	185.8
443.224	183.87
443.435	190.84
443.646	198.59
443.857	175.34
444.068	191.81
444.279	166.24
444.49	246.64
444.701	210.6
444.912	253.81
445.123	216.61
445.334	189.1
445.545	198.4
445.756	171.66
445.967	168.37
446.178	203.63
446.388	230.17
446.599	257.1
446.81	223.78
447.021	204.21
447.232	236.76
447.443	245.48
447.653	178.63
447.864	234.43
448.075	212.15
448.286	232.69
448.496	229.59
448.707	250.71
448.918	223.97
449.129	292.36
449.339	179.02
449.55	234.24
449.761	233.27
449.971	261.95
450.182	230.75
450.393	260.2
450.603	206.53
450.814	242.57
451.024	247.42
451.235	263.69
451.446	294.3
451.656	290.43
451.867	220.1
452.077	270.28
452.288	275.31
452.498	293.91
452.709	228.43
452.919	253.81
453.13	227.85
453.34	276.28
453.55	162.75
453.761	252.84
453.971	272.6
454.182	278.22
454.392	251.48
454.602	295.46
454.813	260.98
455.023	273.57
455.233	208.28
455.444	253.42
455.654	173.02
455.864	238.7
456.075	219.71
456.285	245.09
456.495	238.31
456.705	237.34
456.916	297.79
457.126	286.75
457.336	257.88
457.546	211.96
457.756	225.52
457.967	282.1
458.177	244.7
458.387	239.08
458.597	242.57
458.807	215.25
459.017	252.26
459.227	221.84
459.437	225.52
459.647	304.38
459.857	266.4
460.068	249.55
460.278	322.78
460.488	284.42
460.698	312.13
460.908	252.07
461.117	229.59
461.327	229.01
461.537	274.93
461.747	276.48
461.957	259.82
462.167	378.19
462.377	309.03
462.587	258.46
462.797	313.1
463.007	248.19
463.216	295.08
463.426	348.94
463.636	329.56
463.846	256.13
464.056	254.2
464.265	299.53
464.475	256.33
464.685	289.26
464.895	307.28
465.104	277.06
465.314	292.95
465.524	255.75
465.733	237.53
465.943	322.01
466.153	337.7
466.362	347.39
466.572	304.18
466.782	285.58
466.991	284.23
467.201	320.46
467.41	259.43
467.62	315.61
467.829	292.56
468.039	302.63
468.249	281.9
468.458	289.85
468.668	319.3
468.877	304.18
469.086	363.86
469.296	352.23
469.505	299.34
469.715	371.22
469.924	333.63
470.134	358.63
470.343	377.23
470.552	290.81
470.762	316.58
470.971	284.42
471.18	303.99
471.39	311.16
471.599	285
471.808	370.64
472.018	327.43
472.227	367.54
472.436	360.18
472.645	325.11
472.855	302.44
473.064	374.51
473.273	321.81
473.482	367.73
473.691	378.39
473.901	379.16
474.11	357.27
474.319	431.86
474.528	379.94
474.737	423.34
474.946	382.84
475.155	337.51
475.364	417.33
475.573	373.16
475.783	371.41
475.992	401.25
476.201	420.43
476.41	378.39
476.619	340.8
476.828	367.54
477.037	366.38
477.245	402.41
477.454	441.94
477.663	379.94
477.872	350.68
478.081	432.06
478.29	402.8
478.499	480.69
478.708	424.89
478.917	440
479.125	411.33
479.334	431.67
479.543	382.84
479.752	421.21
479.961	447.56
480.169	467.12
480.378	407.64
480.587	531.64
480.796	465.57
481.004	438.84
481.213	464.41
481.422	455.69
481.63	431.48
481.839	462.86
482.048	490.37
482.256	469.45
482.465	463.06
482.674	489.79
482.882	513.62
483.091	518.08
483.299	469.64
483.508	449.3
483.716	459.76
483.925	480.49
484.134	475.84
484.342	467.71
484.551	503.16
484.759	502.58
484.967	500.45
485.176	529.12
485.384	524.86
485.593	504.52
485.801	524.67
486.01	498.32
486.218	473.32
486.426	389.24
486.635	453.37
486.843	433.41
487.051	488.63
487.26	458.02
487.468	504.32
487.676	498.9
487.885	483.01
488.093	497.74
488.301	525.44
488.509	510.91
488.717	537.07
488.926	518.08
489.134	489.02
489.342	514.79
489.55	511.49
489.758	561.29
489.967	520.41
490.175	616.89
490.383	530.87
490.591	579.69
490.799	536.29
491.007	604.1
491.215	579.89
491.423	570.2
491.631	552.95
491.839	540.36
492.047	600.81
492.255	531.25
492.463	495.61
492.671	560.12
492.879	599.84
493.087	547.72
493.295	588.99
493.503	590.74
493.711	628.13
493.919	625.8
494.127	598.87
494.334	636.27
494.542	578.14
494.75	608.17
494.958	590.54
495.166	615.53
495.374	647.31
495.581	656.61
495.789	607.98
495.997	633.94
496.205	614.37
496.412	613.6
496.62	607.79
496.828	626.38
497.035	612.24
497.243	624.06
497.451	622.51
497.658	649.83
497.866	609.14
498.074	692.84
498.281	627.35
498.489	691.48
498.696	614.37
498.904	627.16
499.112	629.87
499.319	709.7
499.527	622.12
499.734	683.54
499.942	609.34
500.149	633.17
500.357	615.34
500.564	595.58
500.771	655.06
500.979	628.13
501.186	603.72
501.394	654.67
501.601	612.63
501.808	656.22
502.016	638.78
502.223	620.18
502.43	634.72
502.638	625.8
502.845	607.79
503.052	707.95
503.26	626.58
503.467	705.63
503.674	684.51
503.881	669.4
504.089	708.53
504.296	659.13
504.503	670.56
504.71	671.14
504.917	637.62
505.125	688.19
505.332	680.83
505.539	681.41
505.746	720.55
505.953	739.53
506.16	712.41
506.367	776.15
506.574	760.07
506.781	756.78
506.988	707.95
507.195	707.18
507.402	695.75
507.609	738.76
507.816	696.91
508.023	727.33
508.23	683.15
508.437	655.25
508.644	728.1
508.851	764.53
509.058	761.23
509.265	762.2
509.472	741.28
509.679	826.91
509.885	738.76
510.092	740.7
510.299	750.58
510.506	774.21
510.713	787.97
510.92	759.1
511.126	766.66
511.333	785.84
511.54	796.88
511.746	814.13
511.953	836.6
512.16	826.53
512.367	778.48
512.573	759.88
512.78	799.4
512.987	783.51
513.193	768.21
513.4	740.31
513.606	769.95
513.813	791.84
514.02	782.93
514.226	837.76
514.433	833.89
514.639	745.54
514.846	779.45
515.052	772.66
515.259	764.33
515.465	829.82
515.672	800.18
515.878	879.22
516.085	822.65
516.291	845.13
516.497	772.47
516.704	778.48
516.91	754.26
517.117	722.48
517.323	694.97
517.529	750
517.736	779.64
517.942	748.25
518.148	782.55
518.354	804.24
518.561	808.12
518.767	770.15
518.973	851.33
519.179	830.4
519.386	814.51
519.592	796.49
519.798	807.15
520.004	870.12
520.21	827.11
520.417	892.79
520.623	895.5
520.829	939.48
521.035	920.69
521.241	901.89
521.447	910.61
521.653	1020.85
521.859	920.3
522.065	937.54
522.271	1002.45
522.477	964.86
522.683	992.57
522.889	961.37
523.095	937.35
523.301	957.69
523.507	913.32
523.713	947.81
523.919	926.89
524.125	1013.3
524.331	961.18
524.537	1023.37
524.742	1008.84
524.948	1042.55
525.154	1045.46
525.36	1108.43
525.566	1070.45
525.772	1097
525.977	1001.67
526.183	1088.08
526.389	1063.28
526.595	1021.05
526.8	1014.85
527.006	987.53
527.212	968.54
527.417	955.76
527.623	961.95
527.829	1019.3
528.034	1025.89
528.24	1023.57
528.446	1022.21
528.651	1112.3
528.857	1108.62
529.062	1142.91
529.268	1107.85
529.473	1109.98
529.679	1108.04
529.884	1175.46
530.09	1156.09
530.295	1150.28
530.501	1157.45
530.706	1130.32
530.912	1111.92
531.117	1140.98
531.323	1130.13
531.528	1208.21
531.733	1196.58
531.939	1174.11
532.144	1200.26
532.35	1155.7
532.555	1214.6
532.76	1172.75
532.966	1167.52
533.171	1173.14
533.376	1148.15
533.581	1110.56
533.787	1162.1
533.992	1181.08
534.197	1243.66
534.402	1199.3
534.607	1181.28
534.813	1265.75
535.018	1197.36
535.223	1178.76
535.428	1228.55
535.633	1255.87
535.838	1255.09
536.043	1263.62
536.249	1301.98
536.454	1260.91
536.659	1275.24
536.864	1233.39
537.069	1227.19
537.274	1261.49
537.479	1259.74
537.684	1244.44
537.889	1236.49
538.094	1345.96
538.299	1283.38
538.504	1308.76
538.708	1298.49
538.913	1301.79
539.118	1274.86
539.323	1281.64
539.528	1290.94
539.733	1284.93
539.938	1309.15
540.142	1321.94
540.347	1289.78
540.552	1251.22
540.757	1252.58
540.962	1253.74
541.166	1223.51
541.371	1235.53
541.576	1239.79
541.781	1180.31
541.985	1286.68
542.19	1302.37
542.395	1318.26
542.599	1380.64
542.804	1301.59
543.008	1343.44
543.213	1288.81
543.418	1283.77
543.622	1309.34
543.827	1264.01
544.031	1342.86
544.236	1364.56
544.44	1339.76
544.645	1416.1
544.849	1335.69
545.054	1366.31
545.258	1425.79
545.463	1405.25
545.667	1308.57
545.872	1364.17
546.076	1346.35
546.281	1347.32
546.485	1346.74
546.689	1382.58
546.894	1426.56
547.098	1336.86
547.302	1346.35
547.507	1327.75
547.711	1398.66
547.915	1389.36
548.119	1323.49
548.324	1330.46
548.528	1420.94
548.732	1364.76
548.936	1405.44
549.141	1399.44
549.345	1362.04
549.549	1397.31
549.753	1363.01
549.957	1443.03
550.161	1397.89
550.366	1387.42
550.57	1345.19
550.774	1404.86
550.978	1383.94
551.182	1405.83
551.386	1387.62
551.59	1355.07
551.794	1380.64
551.998	1408.74
552.202	1365.92
552.406	1340.15
552.61	1402.92
552.814	1399.05
553.018	1443.8
553.222	1390.33
553.426	1408.15
553.63	1446.9
553.833	1378.51
554.037	1358.75
554.241	1420.36
554.445	1400.21
554.649	1406.99
554.853	1366.89
555.056	1423.65
555.26	1418.04
555.464	1397.89
555.668	1410.09
555.871	1462.4
556.075	1425.59
556.279	1371.15
556.483	1355.07
556.686	1373.47
556.89	1382.97
557.094	1395.17
557.297	1353.91
557.501	1394.21
557.704	1312.83
557.908	1364.76
558.112	1315.35
558.315	1392.66
558.519	1367.08
558.722	1366.69
558.926	1318.45
559.129	1296.94
559.333	1239.79
559.536	1311.28
559.74	1279.12
559.943	1263.81
560.147	1271.56
560.35	1305.86
560.553	1303.14
560.757	1233.78
560.96	1342.86
561.164	1293.46
561.367	1363.59
561.57	1289.19
561.774	1312.06
561.977	1306.44
562.18	1306.24
562.384	1354.87
562.587	1299.27
562.79	1306.44
562.993	1293.26
563.197	1342.67
563.4	1350.03
563.603	1352.55
563.806	1385.29
564.009	1289.97
564.212	1319.22
564.416	1219.64
564.619	1281.83
564.822	1278.15
565.025	1331.82
565.228	1277.96
565.431	1271.76
565.634	1203.75
565.837	1237.46
566.04	1222.93
566.243	1234.75
566.446	1163.65
566.649	1256.45
566.852	1151.25
567.055	1205.5
567.258	1225.26
567.461	1261.1
567.664	1257.23
567.867	1163.65
568.07	1226.61
568.273	1192.13
568.475	1289.39
568.678	1161.9
568.881	1190
569.084	1181.28
569.287	1103.78
569.489	1139.62
569.692	1190.96
569.895	1215.96
570.098	1130.32
570.3	1129.55
570.503	1061.15
570.706	1111.92
570.909	1086.53
571.111	1091.18
571.314	1066
571.516	1088.28
571.719	1113.27
571.922	1092.35
572.124	1072.97
572.327	1109.98
572.529	1044.1
572.732	1053.79
572.935	1098.55
573.137	1156.48
573.34	1079.56
573.542	1070.07
573.745	1087.89
573.947	1089.44
574.15	1091.77
574.352	1099.71
574.554	1131.68
574.757	1028.02
574.959	1036.94
575.162	1057.08
575.364	1011.55
575.566	1130.71
575.769	1033.84
575.971	1036.16
576.173	965.44
576.376	1032.09
576.578	1033.45
576.78	1107.85
576.982	993.54
577.185	1049.33
577.387	962.54
577.589	969.7
577.791	1010.59
577.993	1061.35
578.196	996.83
578.398	1002.06
578.6	1049.14
578.802	970.67
579.004	989.08
579.206	968.74
579.408	1011.94
579.61	964.09
579.812	1022.99
580.014	979.39
580.216	967.77
580.418	964.47
580.62	973
580.822	936.96
581.024	983.65
581.226	1031.9
581.428	974.94
581.63	1065.42
581.832	1009.62
582.034	1035.77
582.236	1013.49
582.438	1013.88
582.64	1025.5
582.841	1060.77
583.043	1087.31
583.245	1007.1
583.447	1045.46
583.649	1040.42
583.85	996.25
584.052	1062.51
584.254	1004.19
584.456	1016.2
584.657	980.75
584.859	983.27
585.061	1012.52
585.262	993.92
585.464	964.86
585.666	1013.88
585.867	990.24
586.069	1042.17
586.27	995.47
586.472	996.44
586.674	961.57
586.875	924.76
587.077	958.27
587.278	972.8
587.48	978.81
587.681	1047.01
587.883	1003.22
588.084	874.38
588.285	950.72
588.487	941.81
588.688	921.85
588.89	869.54
589.091	876.71
589.292	906.54
589.494	869.15
589.695	848.42
589.896	795.14
590.098	790.88
590.299	858.3
590.5	821.1
590.702	848.23
590.903	872.83
591.104	915.07
591.305	884.26
591.507	943.94
591.708	934.83
591.909	883.87
592.11	957.69
592.311	907.51
592.512	891.24
592.714	878.45
592.915	875.35
593.116	890.85
593.317	889.3
593.518	894.53
593.719	865.28
593.92	894.14
594.121	921.27
594.322	892.79
594.523	913.13
594.724	858.3
594.925	868.18
595.126	889.88
595.327	887.75
595.528	881.16
595.729	885.62
595.929	864.11
596.13	906.93
596.331	908.48
596.532	880
596.733	964.47
596.934	943.36
597.135	919.91
597.335	899.57
597.536	866.63
597.737	894.53
597.938	840.86
598.138	911.19
598.339	899.37
598.54	887.56
598.74	897.63
598.941	887.94
599.142	950.52
599.342	911.77
599.543	867.41
599.744	882.13
599.944	888.91
600.145	881.36
600.345	897.24
600.546	936.96
600.746	963.12
600.947	951.49
601.147	920.3
601.348	920.11
601.548	870.89
601.749	895.11
601.949	897.63
602.15	863.34
602.35	887.36
602.551	930.18
602.751	856.36
602.951	865.28
603.152	833.69
603.352	876.9
603.552	890.85
603.753	902.47
603.953	915.46
604.153	885.04
604.354	886.39
604.554	880.58
604.754	903.44
604.954	846.09
605.155	907.32
605.355	885.62
605.555	929.02
605.755	918.94
605.955	877.87
606.155	917.39
606.356	871.28
606.556	916.04
606.756	918.17
606.956	844.16
607.156	925.53
607.356	873.99
607.556	864.31
607.756	879.03
607.956	934.83
608.156	874.57
608.356	843.19
608.556	878.26
608.756	855.98
608.956	855.01
609.156	864.5
609.356	814.32
609.556	809.28
609.755	868.57
609.955	826.33
610.155	866.63
610.355	875.54
610.555	867.02
610.755	860.04
610.954	770.34
611.154	865.47
611.354	869.34
611.554	821.49
611.753	844.93
611.953	804.63
612.153	864.31
612.352	865.86
612.552	803.66
612.752	769.56
612.951	814.71
613.151	828.66
613.351	776.54
613.55	788.16
613.75	849
613.949	796.11
614.149	816.06
614.348	812.38
614.548	793.78
614.747	777.12
614.947	786.42
615.146	755.81
615.346	809.48
615.545	818.19
615.745	786.42
615.944	812.38
616.144	813.54
616.343	792.23
616.542	756.39
616.742	785.65
616.941	740.5
617.14	726.94
617.34	744.96
617.539	780.8
617.738	729.85
617.938	824.59
618.137	774.99
618.336	763.36
618.535	787.19
618.734	785.45
618.934	809.28
619.133	773.05
619.332	768.21
619.531	756.2
619.73	779.25
619.929	792.23
620.128	798.82
620.328	811.41
620.527	763.56
620.726	761.23
620.925	773.83
621.124	740.31
621.323	761.43
621.522	729.46
621.721	728.68
621.92	728.3
622.119	781.19
622.318	719.19
622.517	747.28
622.715	730.04
622.914	688.19
623.113	730.23
623.312	708.73
623.511	764.91
623.71	718.8
623.909	708.53
624.107	789.91
624.306	670.17
624.505	710.86
624.704	732.17
624.902	724.03
625.101	705.43
625.3	742.63
625.499	701.95
625.697	716.86
625.896	706.01
626.095	711.25
626.293	685.48
626.492	699.43
626.69	729.65
626.889	672.88
627.088	729.85
627.286	691.1
627.485	717.45
627.683	679.47
627.882	695.36
628.08	625.03
628.279	678.12
628.477	707.56
628.676	661.84
628.874	707.37
629.073	677.92
629.271	663.97
629.469	711.63
629.668	673.27
629.866	641.88
630.065	649.05
630.263	695.55
630.461	615.92
630.66	680.25
630.858	692.26
631.056	673.47
631.254	730.43
631.453	656.42
631.651	685.87
631.849	682.18
632.047	698.07
632.245	674.43
632.444	669.59
632.642	699.43
632.84	709.89
633.038	657.38
633.236	653.32
633.434	621.15
633.632	650.99
633.83	625.61
634.028	702.33
634.227	682.18
634.425	730.81
634.623	657.19
634.821	677.92
635.019	678.12
635.216	702.53
635.414	687.42
635.612	671.53
635.81	689.35
636.008	714.35
636.206	658.74
636.404	670.75
636.602	662.23
636.8	675.4
636.997	704.46
637.195	718.03
637.393	697.88
637.591	729.46
637.789	670.95
637.986	662.23
638.184	687.03
638.382	753.68
638.58	711.05
638.777	732.75
638.975	680.05
639.173	688.38
639.37	696.91
639.568	684.12
639.765	734.3
639.963	665.91
640.161	695.75
640.358	693.62
640.556	645.76
640.753	645.76
640.951	649.05
641.148	690.71
641.346	658.55
641.543	686.06
641.741	689.16
641.938	609.92
642.136	648.67
642.333	631.42
642.531	710.66
642.728	743.99
642.925	663.97
643.123	674.82
643.32	661.65
643.517	649.83
643.715	661.07
643.912	635.1
644.109	644.4
644.306	652.73
644.504	622.9
644.701	644.21
644.898	676.76
645.095	619.02
645.293	632.97
645.49	664.36
645.687	669.01
645.884	681.6
646.081	586.47
646.278	594.8
646.475	614.18
646.672	612.82
646.87	644.6
647.067	644.98
647.264	642.66
647.461	638.59
647.658	559.54
647.855	638.98
648.052	596.35
648.249	521.57
648.446	588.8
648.642	571.94
648.839	582.79
649.036	582.79
649.233	522.54
649.43	562.06
649.627	558.96
649.824	558.96
650.021	563.22
650.217	575.43
650.414	564.39
650.611	617.67
650.808	608.17
651.004	603.91
651.201	611.47
651.398	632.39
651.595	595.39
651.791	582.4
651.988	624.64
652.185	561.48
652.381	603.91
652.578	550.44
652.775	580.47
652.971	561.67
653.168	559.74
653.364	578.92
653.561	551.79
653.757	566.13
653.954	583.57
654.15	551.21
654.347	611.66
654.543	570.78
654.74	513.24
654.936	549.47
655.133	556.83
655.329	589.57
655.525	566.71
655.722	592.09
655.918	543.46
656.115	588.02
656.311	500.45
656.507	480.11
656.704	477.01
656.9	473.13
657.096	473.71
657.292	499.67
657.489	563.22
657.685	517.5
657.881	495.22
658.077	489.41
658.273	491.54
658.47	580.85
658.666	547.92
658.862	539.59
659.058	552.76
659.254	572.72
659.45	505.1
659.646	551.99
659.842	520.79
660.038	545.01
660.234	496.96
660.43	551.21
660.626	589.38
660.822	574.65
661.018	573.49
661.214	521.96
661.41	495.61
661.606	553.34
661.802	549.85
661.998	522.15
662.194	529.7
662.39	570
662.586	542.69
662.781	539.59
662.977	544.62
663.173	555.47
663.369	530.48
663.564	520.6
663.76	561.29
663.956	502
664.152	571.36
664.347	485.34
664.543	518.27
664.739	515.37
664.934	466.54
665.13	456.47
665.326	578.14
665.521	517.89
665.717	502.39
665.912	502
666.108	455.89
666.304	497.54
666.499	519.44
666.695	453.56
666.89	519.05
667.086	520.02
667.281	517.69
667.477	553.15
667.672	533.19
667.867	510.14
668.063	520.99
668.258	475.84
668.454	510.14
668.649	562.06
668.844	484.56
669.04	531.25
669.235	485.92
669.43	450.66
669.626	465.57
669.821	486.31
670.016	471.19
670.211	480.49
670.407	472.94
670.602	494.83
670.797	476.81
670.992	510.91
671.187	455.31
671.382	502.58
671.578	471.97
671.773	496.96
671.968	449.69
672.163	484.37
672.358	513.24
672.553	454.72
672.748	443.1
672.943	521.37
673.138	444.07
673.333	504.13
673.528	429.34
673.723	490.96
673.918	469.26
674.113	429.15
674.308	562.84
674.503	504.13
674.698	482.04
674.892	461.7
675.087	515.76
675.282	479.14
675.477	467.12
675.672	483.21
675.867	461.51
676.061	427.79
676.256	436.71
676.451	458.21
676.646	487.66
676.84	419.46
677.035	431.28
677.23	467.9
677.424	487.47
677.619	485.14
677.814	479.33
678.008	509.36
678.203	429.15
678.397	460.34
678.592	456.47
678.787	486.11
678.981	447.17
679.176	467.9
679.37	440.77
679.565	448.72
679.759	449.69
679.954	471.77
680.148	489.41
680.342	501.81
680.537	485.72
680.731	471.58
680.926	488.24
681.12	478.94
681.314	421.98
681.509	452.01
681.703	468.48
681.897	480.3
682.092	428.18
682.286	430.12
682.48	509.56
682.674	509.75
682.869	453.37
683.063	468.29
683.257	509.75
683.451	459.96
683.645	484.17
683.839	464.8
684.034	456.66
684.228	500.45
684.422	425.28
684.616	434.77
684.81	493.47
685.004	451.24
685.198	452.01
685.392	485.14
685.586	450.46
685.78	471.19
685.974	474.49
686.168	481.66
686.362	503.36
686.556	454.34
686.75	398.73
686.944	426.63
687.138	446.59
687.331	358.82
687.525	372.19
687.719	316
687.913	381.49
688.107	368.7
688.301	375.48
688.494	429.54
688.688	351.65
688.882	354.56
689.076	317.16
689.269	360.18
689.463	446.01
689.657	377.81
689.85	395.05
690.044	381.68
690.238	405.71
690.431	396.02
690.625	388.46
690.818	398.54
691.012	410.55
691.205	446.2
691.399	391.95
691.593	426.44
691.786	493.28
691.98	485.72
692.173	486.69
692.366	484.95
692.56	487.08
692.753	524.86
692.947	445.42
693.14	544.24
693.333	502.39
693.527	464.02
693.72	510.91
693.914	489.41
694.107	489.99
694.3	474.49
694.493	494.64
694.687	528.93
694.88	494.06
695.073	544.82
695.266	555.28
695.46	529.12
695.653	590.74
695.846	575.62
696.039	486.31
696.232	505.49
696.425	598.68
696.618	536.68
696.812	578.92
697.005	646.73
697.198	681.02
697.391	622.7
697.584	631.03
697.777	698.85
697.97	683.73
698.163	665.72
698.356	675.98
698.549	721.71
698.742	717.64
698.935	673.85
699.127	694.39
699.32	674.24
699.513	654.28
699.706	725.39
699.899	714.93
700.092	710.28
700.285	714.15
700.477	697.68
700.67	711.05
700.863	753.48
701.056	815.68
701.248	774.02
701.441	778.48
701.634	748.45
701.826	834.28
702.019	751.93
702.212	848.61
702.404	768.01
702.597	767.05
702.79	824.39
702.982	854.62
703.175	859.08
703.367	866.83
703.56	875.93
703.752	966.41
703.945	942.97
704.137	942.97
704.33	943.94
704.522	939.09
704.715	945.49
704.907	991.79
705.1	1016.79
705.292	1036.94
705.484	985.01
705.677	1017.95
705.869	1017.95
706.061	1020.66
706.254	1055.15
706.446	1074.91
706.638	1067.74
706.831	1127.03
707.023	1097.77
707.215	1166.36
707.407	1176.82
707.599	1121.02
707.792	1214.21
707.984	1161.13
708.176	1180.31
708.368	1181.66
708.56	1190.96
708.752	1185.93
708.944	1198.13
709.136	1272.53
709.329	1245.41
709.521	1335.5
709.713	1276.79
709.905	1278.93
710.097	1345.96
710.289	1263.43
710.481	1322.71
710.672	1332.4
710.864	1339.96
711.056	1392.66
711.248	1352.55
711.44	1372.12
711.632	1371.73
711.824	1441.29
712.016	1455.04
712.207	1437.99
712.399	1480.42
712.591	1517.62
712.783	1509.48
712.975	1494.57
713.166	1476.74
713.358	1473.64
713.55	1580.2
713.741	1552.3
713.933	1556.37
714.125	1569.74
714.316	1594.73
714.508	1622.83
714.7	1581.95
714.891	1605.2
715.083	1689.09
715.274	1595.31
715.466	1624.57
715.657	1652.08
715.849	1579.23
716.04	1643.17
716.232	1566.06
716.423	1642.01
716.615	1549.4
716.806	1503.87
716.998	1498.05
717.189	1466.67
717.381	1390.33
717.572	1387.23
717.763	1385.49
717.955	1394.01
718.146	1390.33
718.337	1310.31
718.528	1311.28
718.72	1247.73
718.911	1319.42
719.102	1271.56
719.293	1352.55
719.485	1314.77
719.676	1258
719.867	1265.56
720.058	1269.04
720.249	1316.12
720.44	1319.61
720.632	1351
720.823	1399.44
721.014	1489.53
721.205	1524.4
721.396	1549.98
721.587	1660.22
721.778	1705.56
721.969	1732.1
722.16	1768.52
722.351	1766.01
722.542	1870.24
722.733	1924.68
722.924	1817.16
723.115	1868.11
723.305	1832.85
723.496	1885.55
723.687	1762.13
723.878	1786.93
724.069	1772.79
724.26	1779.96
724.45	1735.01
724.641	1720.86
724.832	1773.95
725.023	1766.01
725.213	1727.84
725.404	1732.1
725.595	1757.67
725.785	1706.14
725.976	1771.62
726.167	1810.96
726.357	1785.96
726.548	1904.34
726.739	1847.96
726.929	1861.33
727.12	1887.68
727.31	1918.49
727.501	1853.58
727.691	1838.66
727.882	1919.26
728.072	1925.07
728.263	1978.35
728.453	1981.07
728.644	2002.77
728.834	1939.6
729.024	1975.06
729.215	1948.52
729.405	1975.64
729.596	2043.06
729.786	2060.7
729.976	2080.26
730.167	2075.61
730.357	2054.88
730.547	2062.83
730.737	2075.42
730.928	2169.19
731.118	2185.08
731.308	2114.36
731.498	2143.81
731.688	2241.46
731.879	2212.21
732.069	2286.02
732.259	2319.93
732.449	2327.68
732.639	2411.77
732.829	2437.34
733.019	2431.33
733.209	2494.3
733.399	2538.28
733.589	2560.76
733.779	2614.04
733.969	2615.59
734.159	2674.68
734.349	2723.5
734.539	2744.82
734.729	2722.73
734.919	2782.99
735.109	2832
735.299	2739.97
735.488	2756.25
735.678	2790.74
735.868	2793.84
736.058	2788.02
736.248	2775.82
736.437	2746.95
736.627	2736.68
736.817	2844.98
737.007	2810.69
737.196	2869.01
737.386	2859.9
737.576	2839.56
737.765	2911.44
737.955	2841.3
738.144	2988.36
738.334	2972.28
738.524	2929.46
738.713	2934.88
738.903	2944.76
739.092	2989.52
739.282	2932.36
739.471	2991.46
739.661	2976.54
739.85	3036.79
740.04	3049
740.229	3072.64
740.419	3106.93
740.608	3055.59
740.797	3078.26
740.987	3138.32
741.176	3113.13
741.365	3063.53
741.555	3053.46
741.744	3147.62
741.933	3133.67
742.123	3183.46
742.312	3178.04
742.501	3189.66
742.69	3224.73
742.88	3113.32
743.069	3214.46
743.258	3196.25
743.447	3251.47
743.636	3242.17
743.825	3205.35
744.014	3246.82
744.204	3274.33
744.393	3211.36
744.582	3292.35
744.771	3369.85
744.96	3273.94
745.149	3336.52
745.338	3254.18
745.527	3308.62
745.716	3258.63
745.905	3250.5
746.094	3286.53
746.283	3340.98
746.471	3316.95
746.66	3377.79
746.849	3346.4
747.038	3385.73
747.227	3305.52
747.416	3330.51
747.604	3338.26
747.793	3282.85
747.982	3291.77
748.171	3400.46
748.359	3345.05
748.548	3335.16
748.737	3332.84
748.926	3303.78
749.114	3242.17
749.303	3337.3
749.491	3310.37
749.68	3258.05
749.869	3353.57
750.057	3301.07
750.246	3281.5
750.434	3285.18
750.623	3278.59
750.811	3273.55
751	3338.85
751.188	3290.99
751.377	3318.89
751.565	3287.7
751.754	3274.33
751.942	3243.72
752.131	3332.26
752.319	3251.85
752.507	3250.3
752.696	3247.01
752.884	3277.82
753.072	3262.32
753.261	3304.36
753.449	3280.53
753.637	3247.4
753.825	3351.63
754.014	3272.2
754.202	3238.87
754.39	3335.16
754.578	3280.92
754.766	3238.1
754.955	3225.5
755.143	3281.69
755.331	3230.35
755.519	3223.76
755.707	3243.13
755.895	3229.19
756.083	3252.43
756.271	3205.55
756.459	3195.09
756.647	3231.12
756.835	3178.81
757.023	3201.67
757.211	3193.54
757.399	3142.77
757.587	3183.07
757.775	3123.98
757.963	3163.31
758.151	3149.17
758.339	3129.6
758.526	3102.67
758.714	3131.73
758.902	3011.8
759.09	2953.29
759.278	2744.82
759.465	2517.75
759.653	2200.97
759.841	2010.32
760.028	1680.76
760.216	1485.85
760.404	1347.9
760.591	1166.16
760.779	975.52
760.967	844.93
761.154	690.71
761.342	724.03
761.529	728.3
761.717	765.11
761.905	762.59
762.092	784.87
762.28	757.16
762.467	774.6
762.655	673.47
762.842	708.53
763.029	754.65
763.217	739.34
763.404	710.28
763.592	767.05
763.779	744.38
763.966	732.36
764.154	805.02
764.341	842.03
764.528	845.13
764.716	929.41
764.903	954.59
765.09	1032.48
765.277	1093.32
765.465	1228.55
765.652	1313.8
765.839	1351.39
766.026	1467.83
766.213	1537.77
766.4	1601.9
766.588	1814.06
766.775	1809.99
766.962	1929.33
767.149	1995.6
767.336	2097.7
767.523	2122.31
767.71	2215.89
767.897	2323.22
768.084	2389.48
768.271	2443.35
768.458	2461.17
768.645	2521.23
768.832	2537.12
769.019	2582.26
769.206	2611.71
769.392	2673.91
769.579	2710.72
769.766	2697.54
769.953	2704.13
770.14	2772.52
770.327	2745.2
770.513	2820.18
770.7	2865.91
770.887	2793.84
771.073	2851.38
771.26	2837.23
771.447	2792.67
771.634	2835.49
771.82	2912.02
772.007	2771.55
772.193	2832.97
772.38	2865.72
772.567	2802.55
772.753	2826.58
772.94	2906.01
773.126	2877.92
773.313	2901.56
773.499	2841.69
773.686	2885.28
773.872	2828.71
774.059	2863
774.245	2814.76
774.432	2822.7
774.618	2734.55
774.804	2811.85
774.991	2724.09
775.177	2831.42
775.363	2768.45
775.55	2852.15
775.736	2732.03
775.922	2752.57
776.109	2758.19
776.295	2765.16
776.481	2804.68
776.667	2821.54
776.853	2727.96
777.04	2726.6
777.226	2743.85
777.412	2842.27
777.598	2705.68
777.784	2728.93
777.97	2720.79
778.156	2775.04
778.342	2744.04
778.528	2728.74
778.715	2656.27
778.901	2676.81
779.087	2767.87
779.272	2699.87
779.458	2681.27
779.644	2708.59
779.83	2678.36
780.016	2745.2
780.202	2669.45
780.388	2665.19
780.574	2622.17
780.76	2609.39
780.946	2663.44
781.131	2667.12
781.317	2621.79
781.503	2623.92
781.689	2563.47
781.874	2730.67
782.06	2588.08
782.246	2626.63
782.432	2598.73
782.617	2608.23
782.803	2649.3
782.989	2564.83
783.174	2584.39
783.36	2534.6
783.545	2535.38
783.731	2570.06
783.916	2500.11
784.102	2587.11
784.288	2514.26
784.473	2549.13
784.659	2538.48
784.844	2561.14
785.029	2515.23
785.215	2518.13
785.4	2454.2
785.586	2539.44
785.771	2429.59
785.956	2499.15
786.142	2479.19
786.327	2471.25
786.512	2458.65
786.698	2493.72
786.883	2425.72
787.068	2467.56
787.254	2435.02
787.439	2410.41
787.624	2397.62
787.809	2406.53
787.994	2380.96
788.18	2450.51
788.365	2335.24
788.55	2348.6
788.735	2364.88
788.92	2329.81
789.105	2309.85
789.29	2387.35
789.475	2299.59
789.66	2323.03
789.845	2299.78
790.03	2285.64
790.215	2356.35
790.4	2301.33
790.585	2359.45
790.77	2302.49
790.955	2263.74
791.14	2261.22
791.325	2329.23
791.51	2206.01
791.695	2283.5
791.879	2253.28
792.064	2188.37
792.249	2313.34
792.434	2247.27
792.618	2260.26
792.803	2290.67
792.988	2249.99
793.173	2253.86
793.357	2286.8
793.542	2198.06
793.727	2295.71
793.911	2322.84
794.096	2283.31
794.281	2283.7
794.465	2368.17
794.65	2286.22
794.834	2257.74
795.019	2331.75
795.203	2320.32
795.388	2333.3
795.572	2372.43
795.757	2347.44
795.941	2313.92
796.126	2309.47
796.31	2237.2
796.494	2287.38
796.679	2289.7
796.863	2235.07
797.048	2338.34
797.232	2264.52
797.416	2322.45
797.601	2276.34
797.785	2367.78
797.969	2332.52
798.153	2304.24
798.338	2358.87
798.522	2346.86
798.706	2351.32
798.89	2345.7
799.074	2454.2
799.258	2379.8
799.443	2364.68
799.627	2342.21
799.811	2361.2
799.995	2322.45
800.179	2286.99
800.363	2302.88
800.547	2333.49
800.731	2356.55
800.915	2269.56
801.099	2322.64
801.283	2324
801.467	2299
801.651	2299.2
801.835	2342.02
802.019	2346.86
802.202	2338.72
802.386	2255.8
802.57	2252.31
802.754	2234.29
802.938	2270.14
803.121	2296.87
803.305	2305.98
803.489	2282.92
803.673	2325.16
803.856	2307.34
804.04	2294.16
804.224	2297.84
804.407	2280.4
804.591	2271.49
804.775	2293.97
804.958	2299.2
805.142	2409.63
805.326	2290.67
805.509	2327.1
805.693	2357.9
805.876	2378.83
806.06	2342.4
806.243	2353.45
806.427	2345.89
806.61	2360.81
806.794	2349.77
806.977	2355
807.16	2323.22
807.344	2336.4
807.527	2310.82
807.71	2291.45
807.894	2324.58
808.077	2370.5
808.26	2266.07
808.444	2259.48
808.627	2365.27
808.81	2270.91
808.993	2222.67
809.177	2206.39
809.36	2252.51
809.543	2317.41
809.726	2170.74
809.909	2181.59
810.092	2114.94
810.276	2160.67
810.459	2141.88
810.642	2112.62
810.825	2104.48
811.008	2109.52
811.191	2024.46
811.374	2056.43
811.557	2076.39
811.74	2108.55
811.923	2049.46
812.106	2031.05
812.289	1965.76
812.472	1979.52
812.654	2000.25
812.837	1959.56
813.02	1915.58
813.203	1895.82
813.386	1800.69
813.569	1794.87
813.751	1721.44
813.934	1762.13
814.117	1745.66
814.3	1708.27
814.482	1667
814.665	1617.98
814.848	1587.76
815.03	1543.39
815.213	1530.99
815.396	1543.2
815.578	1496.89
815.761	1488.56
815.943	1538.93
816.126	1430.82
816.309	1432.57
816.491	1401.57
816.674	1317.87
816.856	1413.39
817.039	1397.11
817.221	1474.42
817.403	1394.01
817.586	1410.87
817.768	1427.72
817.951	1340.73
818.133	1355.65
818.315	1402.15
818.498	1419
818.68	1475.97
818.862	1426.56
819.045	1476.16
819.227	1434.5
819.409	1413.39
819.591	1443.61
819.774	1407.38
819.956	1387.04
820.138	1477.13
820.32	1472.48
820.502	1501.15
820.684	1618.56
820.866	1541.84
821.048	1603.45
821.231	1627.28
821.413	1621.86
821.595	1605.78
821.777	1604.61
821.959	1596.86
822.141	1661.58
822.323	1539.71
822.505	1461.44
822.686	1450.78
822.868	1332.01
823.05	1256.64
823.232	1273.5
823.414	1211.89
823.596	1287.45
823.778	1240.18
823.96	1255.68
824.141	1313.61
824.323	1291.33
824.505	1397.31
824.687	1414.55
824.868	1478.49
825.05	1540.87
825.232	1556.18
825.413	1635.61
825.595	1598.22
825.777	1538.74
825.958	1570.52
826.14	1542.81
826.321	1584.46
826.503	1549.98
826.685	1590.47
826.866	1618.37
827.048	1593.38
827.229	1538.74
827.411	1534.67
827.592	1478.68
827.773	1504.45
827.955	1435.47
828.136	1431.79
828.318	1418.04
828.499	1434.89
828.68	1379.87
828.862	1411.84
829.043	1392.27
829.224	1393.82
829.406	1407.38
829.587	1380.84
829.768	1397.5
829.949	1427.72
830.131	1402.92
830.312	1495.92
830.493	1421.14
830.674	1435.47
830.855	1405.05
831.036	1412.61
831.218	1463.95
831.399	1478.87
831.58	1399.82
831.761	1427.53
831.942	1455.24
832.123	1414.16
832.304	1374.25
832.485	1394.98
832.666	1407.96
832.847	1452.14
833.028	1419.97
833.209	1426.56
833.389	1393.43
833.57	1354.29
833.751	1379.87
833.932	1463.57
834.113	1437.8
834.294	1422.69
834.475	1422.69
834.655	1449.04
834.836	1470.15
835.017	1473.06
835.198	1437.99
835.378	1443.42
835.559	1464.15
835.74	1429.27
835.92	1421.52
836.101	1422.3
836.281	1463.57
836.462	1460.08
836.643	1485.46
836.823	1512.97
837.004	1488.75
837.184	1542.42
837.365	1487.2
837.545	1510.45
837.726	1464.73
837.906	1530.41
838.087	1474.42
838.267	1510.07
838.448	1450.39
838.628	1457.56
838.808	1496.12
838.989	1549.01
839.169	1449.62
839.349	1508.32
839.53	1499.8
839.71	1508.9
839.89	1498.83
840.07	1547.46
840.251	1479.84
840.431	1522.85
840.611	1494.37
840.791	1467.05
840.971	1468.8
841.151	1488.95
841.332	1429.08
841.512	1522.27
841.692	1402.73
841.872	1441.09
842.052	1483.91
842.232	1479.26
842.412	1435.28
842.592	1484.88
842.772	1465.7
842.952	1491.08
843.132	1444.58
843.312	1455.43
843.492	1416.87
843.672	1443.61
843.851	1386.84
844.031	1447.1
844.211	1428.89
844.391	1405.25
844.571	1445.55
844.751	1456.79
844.93	1437.22
845.11	1435.09
845.29	1431.6
845.47	1452.14
845.649	1417.84
845.829	1504.83
846.009	1456.79
846.188	1469.77
846.368	1423.85
846.547	1439.93
846.727	1478.1
846.907	1360.3
847.086	1442.84
847.266	1426.37
847.445	1415.52
847.625	1417.45
847.804	1402.92
847.984	1453.3
848.163	1370.76
848.343	1390.72
848.522	1417.26
848.701	1437.41
848.881	1371.34
849.06	1392.85
849.239	1397.11
849.419	1396.53
849.598	1341.51
849.777	1358.75
849.957	1354.87
850.136	1275.83
850.315	1256.06
850.494	1308.96
850.674	1273.31
850.853	1310.7
851.032	1312.44
851.211	1370.57
851.39	1344.99
851.569	1282.22
851.748	1242.31
851.927	1327.56
852.107	1312.06
852.286	1271.76
852.465	1266.53
852.644	1319.61
852.823	1325.04
853.002	1314.19
853.181	1269.24
853.359	1313.02
853.538	1252.77
853.717	1315.74
853.896	1225.26
854.075	1172.95
854.254	1148.73
854.433	1077.62
854.611	1169.85
854.79	1086.73
854.969	1131.68
855.148	1185.93
855.327	1146.6
855.505	1186.7
855.684	1142.53
855.863	1157.64
856.041	1147.56
856.22	1177.4
856.399	1152.8
856.577	1258.58
856.756	1272.14
856.934	1339.37
857.113	1338.99
857.291	1247.15
857.47	1232.62
857.648	1257.23
857.827	1278.34
858.005	1282.03
858.184	1208.4
858.362	1308.76
858.541	1244.44
858.719	1236.69
858.898	1256.26
859.076	1225.64
859.254	1287.64
859.433	1225.06
859.611	1211.89
859.789	1179.53
859.967	1256.45
860.146	1284.74
860.324	1183.41
860.502	1203.17
860.68	1155.9
860.859	1143.11
861.037	1205.88
861.215	1227.19
861.393	1222.93
861.571	1209.56
861.749	1177.6
861.927	1198.13
862.105	1232.43
862.283	1197.36
862.461	1128.58
862.639	1164.61
862.817	1169.07
862.995	1160.16
863.173	1174.5
863.351	1158.22
863.529	1184.96
863.707	1186.31
863.885	1196.39
864.063	1092.93
864.241	1126.25
864.418	1193.87
864.596	1179.92
864.774	1119.28
864.952	1167.33
865.129	1151.05
865.307	1093.7
865.485	1083.43
865.663	1156.86
865.84	1049.53
866.018	1059.99
866.196	943.74
866.373	1022.6
866.551	977.45
866.728	914.68
866.906	994.7
867.084	973
867.261	1041.78
867.439	1018.53
867.616	1053.21
867.794	1041.59
867.971	1050.11
868.149	1042.94
868.326	1121.02
868.503	1111.72
868.681	1058.44
868.858	1055.92
869.035	1040.04
869.213	1068.13
869.39	1056.7
869.567	1135.94
869.745	1074.72
869.922	1084.6
870.099	1078.98
870.276	1079.17
870.454	1068.13
870.631	1061.93
870.808	1042.94
870.985	1055.92
871.162	1111.92
871.339	1087.7
871.517	1009.62
871.694	1051.27
871.871	1041.97
872.048	1045.07
872.225	1011.17
872.402	1042.55
872.579	984.82
872.756	1012.72
872.933	1020.08
873.11	1008.07
873.287	1050.3
873.463	1019.5
873.64	988.3
873.817	1031.7
873.994	1015.43
874.171	999.74
874.348	1004
874.524	959.63
874.701	985.79
874.878	954.79
875.055	1017.75
875.231	966.41
875.408	995.86
875.585	939.29
875.762	1010
875.938	975.71
876.115	940.06
876.291	963.7
876.468	966.41
876.645	933.28
876.821	928.24
876.998	959.24
877.174	956.14
877.351	979.59
877.527	958.86
877.704	958.08
877.88	932.31
878.057	938.9
878.233	985.4
878.409	925.53
878.586	982.88
878.762	923.59
878.938	942.97
879.115	890.66
879.291	927.08
879.467	859.08
879.644	903.25
879.82	967.38
879.996	884.84
880.172	832.34
880.349	878.26
880.525	938.51
880.701	868.38
880.877	837.76
881.053	914.29
881.229	896.27
881.405	937.16
881.581	877.09
881.757	879.03
881.933	876.51
882.109	905.57
882.285	892.01
882.461	873.03
882.637	902.09
882.813	865.47
882.989	887.94
883.165	935.61
883.341	824.2
883.517	911.39
883.693	893.76
883.869	928.05
884.044	849.97
884.22	911.58
884.396	930.76
884.572	907.32
884.747	915.26
884.923	914.49
885.099	934.83
885.275	921.07
885.45	858.49
885.626	870.31
885.801	864.11
885.977	884.65
886.153	812.58
886.328	900.73
886.504	870.89
886.679	876.51
886.855	870.31
887.03	892.01
887.206	936.57
887.381	864.89
887.557	906.16
887.732	884.46
887.908	921.46
888.083	900.73
888.258	873.61
888.434	881.36
888.609	877.67
888.784	923.59
888.96	857.33
889.135	860.82
889.31	864.5
889.485	885.04
889.661	855.39
889.836	903.25
890.011	918.56
890.186	864.89
890.361	842.03
890.537	838.34
890.712	877.29
890.887	875.74
891.062	913.52
891.237	911.19
891.412	840.48
891.587	880.39
891.762	917.78
891.937	913.52
892.112	845.71
892.287	868.38
892.462	822.65
892.637	805.02
892.812	795.33
892.987	776.54
893.161	756.39
893.336	811.41
893.511	799.21
893.686	801.53
893.861	770.73
894.035	764.14
894.21	810.06
894.385	725.97
894.56	786.03
894.734	743.41
894.909	731.4
895.084	706.79
895.258	716.67
895.433	753.29
895.608	693.81
895.782	661.07
895.957	657.97
896.131	691.29
896.306	602.17
896.48	633.75
896.655	655.64
896.829	579.11
897.004	550.24
897.178	591.32
897.353	575.43
897.527	606.43
897.701	592.67
897.876	557.6
898.05	615.15
898.224	590.93
898.399	635.49
898.573	557.8
898.747	491.92
898.921	545.2
899.096	436.51
899.27	468.87
899.444	471.58
899.618	510.33
899.792	508.97
899.967	504.91
900.141	551.21
900.315	466.54
900.489	502
900.663	512.27
900.837	529.7
901.011	460.15
901.185	554.5
901.359	495.8
901.533	534.74
901.707	488.82
901.881	516.14
902.055	461.89
902.229	495.8
902.403	523.31
902.576	506.46
902.75	508.97
902.924	600.42
903.098	556.83
903.272	585.7
903.446	645.57
903.619	592.09
903.793	634.52
903.967	647.5
904.14	654.09
904.314	646.73
904.488	629.29
904.661	634.91
904.835	646.53
905.009	682.96
905.182	719.19
905.356	652.93
905.529	664.55
905.703	626.58
905.876	619.8
906.05	576.4
906.223	576.59
906.397	521.37
906.57	543.85
906.744	522.54
906.917	503.94
907.09	520.99
907.264	486.31
907.437	476.04
907.61	460.92
907.784	467.51
907.957	486.11
908.13	448.72
908.304	496.96
908.477	453.37
908.65	451.43
908.823	402.22
908.996	494.83
909.17	442.13
909.343	441.74
909.516	454.72
909.689	439.81
909.862	426.63
910.035	423.73
910.208	396.21
910.381	418.3
910.554	514.59
910.727	437.29
910.9	457.44
911.073	421.98
911.246	488.05
911.419	490.37
911.592	494.44
911.765	451.24
911.938	429.34
912.11	433.8
912.283	447.17
912.456	488.05
912.629	452.21
912.802	431.86
912.974	367.54
913.147	348.16
913.32	307.28
913.493	348.94
913.665	365.6
913.838	398.54
914.01	368.51
914.183	392.53
914.356	373.93
914.528	414.81
914.701	459.37
914.873	417.14
915.046	376.45
915.218	364.44
915.391	302.44
915.563	317.94
915.736	364.63
915.908	388.27
916.081	368.12
916.253	359.98
916.425	364.24
916.598	409.19
916.77	348.94
916.942	355.33
917.115	289.07
917.287	383.04
917.459	344.68
917.632	312.71
917.804	288.68
917.976	352.62
918.148	356.49
918.32	366.96
918.493	376.26
918.665	410.74
918.837	359.01
919.009	443.1
919.181	426.44
919.353	424.11
919.525	384.39
919.697	385.17
919.869	394.47
920.041	459.76
920.213	497.74
920.385	464.02
920.557	404.16
920.729	427.21
920.901	443.49
921.073	401.25
921.244	413.84
921.416	462.09
921.588	399.51
921.76	404.93
921.932	484.56
922.103	392.73
922.275	401.25
922.447	402.8
922.619	346.81
922.79	364.24
922.962	401.44
923.134	388.85
923.305	346.42
923.477	351.84
923.648	342.93
923.82	354.56
923.991	330.15
924.163	298.76
924.335	340.22
924.506	324.14
924.677	371.8
924.849	306.9
925.02	344.87
925.192	365.99
925.363	346.03
925.535	348.55
925.706	347.78
925.877	390.59
926.049	340.22
926.22	350.88
926.391	341
926.562	373.93
926.734	318.13
926.905	385.56
927.076	303.21
927.247	309.41
927.419	257.68
927.59	324.91
927.761	308.25
927.932	284.61
928.103	293.91
928.274	245.67
928.445	231.72
928.616	235.02
928.787	270.86
928.958	272.6
929.129	244.7
929.3	240.63
929.471	193.55
929.642	153.25
929.813	120.9
929.984	226.49
930.155	125.74
930.326	195.49
930.496	148.8
930.667	102.88
930.838	138.34
931.009	111.99
931.18	119.54
931.35	137.75
931.521	112.95
931.692	63.16
931.863	31.19
932.033	129.42
932.204	101.52
932.374	88.15
932.545	55.61
932.716	106.17
932.886	119.15
933.057	19.96
933.227	58.32
933.398	137.37
933.568	38.56
933.739	6.01
933.909	28.87
934.08	90.29
934.25	17.05
934.421	17.24
934.591	44.17
934.761	21.51
934.932	-21.12
935.102	26.74
935.272	30.22
935.443	25.57
935.613	19.57
935.783	51.54
935.953	-8.33
936.123	137.75
936.294	-3.87
936.464	16.86
936.634	34.29
936.804	-13.37
936.974	10.07
937.144	62.19
937.314	47.86
937.484	35.84
937.655	1.36
937.825	82.92
937.995	15.11
938.165	74.21
938.334	31.58
938.504	51.92
938.674	40.11
938.844	50.18
939.014	71.3
939.184	48.82
939.354	133.69
939.524	129.23
939.694	76.72
939.863	59.87
940.033	97.45
940.203	121.87
940.373	78.86
940.542	120.51
940.712	80.21
940.882	71.88
941.051	107.53
941.221	91.45
941.391	131.94
941.56	68.97
941.73	58.9
941.899	148.22
942.069	58.9
942.238	111.02
942.408	70.33
942.577	95.9
942.747	56.77
942.916	17.05
943.086	32.94
943.255	118.57
943.425	78.08
943.594	36.42
943.763	3.29
943.933	34.49
944.102	15.69
944.271	41.07
944.441	71.3
944.61	29.64
944.779	32.55
944.948	139.3
945.117	4.07
945.287	56.57
945.456	4.07
945.625	16.86
945.794	48.63
945.963	30.22
946.132	61.81
946.301	20.15
946.47	68.39
946.639	-3.87
946.808	26.74
946.977	60.84
947.146	102.3
947.315	19.96
947.484	92.22
947.653	29.06
947.822	31.77
947.991	37.2
948.16	114.5
948.329	70.33
948.498	77.69
948.666	50.37
948.835	92.03
949.004	-3.68
949.173	5.62
949.341	61.42
949.51	81.76
949.679	103.85
949.847	90.87
950.016	129.81
950.185	114.7
950.353	48.82
950.522	34.68
950.69	88.74
950.859	32.74
951.028	75.56
951.196	81.57
951.365	32.36
951.533	49.6
951.701	81.57
951.87	63.55
952.038	48.44
952.207	48.05
952.375	111.6
952.543	61.03
952.712	52.89
952.88	25.19
953.048	116.05
953.217	46.5
953.385	31.77
953.553	89.32
953.721	23.06
953.89	68.01
954.058	26.35
954.226	15.89
954.394	79.63
954.562	7.75
954.73	29.45
954.898	51.15
955.067	91.25
955.235	14.14
955.403	94.35
955.571	107.34
955.739	72.27
955.907	41.46
956.075	59.48
956.243	31.77
956.41	85.64
956.578	13.37
956.746	30.42
956.914	52.31
957.082	81.57
957.25	58.71
957.418	41.85
957.585	66.26
957.753	89.9
957.921	29.84
958.089	43.21
958.256	68.01
958.424	96.68
958.592	88.35
958.759	49.99
958.927	77.5
959.095	25.96
959.262	51.92
959.43	63.36
959.597	38.75
959.765	50.37
959.932	11.62
960.1	83.12
960.267	59.48
960.435	62.77
960.602	110.63
960.77	20.34
960.937	28.87
961.104	81.57
961.272	14.34
961.439	34.87
961.606	68.78
961.774	103.85
961.941	28.29
962.108	73.24
962.275	76.72
962.443	83.7
962.61	73.24
962.777	97.84
962.944	78.08
963.111	93.39
963.278	70.33
963.446	85.06
963.613	91.06
963.78	83.7
963.947	93
964.114	71.11
964.281	122.64
964.448	82.34
964.615	25.96
964.782	82.73
964.949	115.86
965.116	82.92
965.282	104.04
965.449	61.03
965.616	52.12
965.783	109.27
965.95	86.22
966.117	61.42
966.283	90.09
966.45	93
966.617	93.39
966.784	122.64
966.95	111.02
967.117	110.63
967.284	50.57
967.45	51.92
967.617	148.02
967.784	122.06
967.95	138.34
968.117	84.09
968.283	145.31
968.45	148.22
968.616	124.77
968.783	137.37
968.949	112.57
969.116	135.24
969.282	93.39
969.449	108.11
969.615	109.08
969.781	42.04
969.948	123.22
970.114	65.87
970.28	136.01
970.447	96.29
970.613	125.55
970.779	80.6
970.945	103.27
971.112	93
971.278	92.61
971.444	98.42
971.61	121.87
971.776	97.07
971.942	112.95
972.108	102.3
972.275	117.6
972.441	115.86
972.607	148.6
972.773	62.58
972.939	115.86
973.105	99.2
973.271	59.67
973.437	88.35
973.602	75.76
973.768	84.47
973.934	82.92
974.1	100.36
974.266	21.51
974.432	85.06
974.598	68.39
974.763	126.52
974.929	100.55
975.095	132.14
975.261	51.92
975.426	56.57
975.592	61.22
975.758	142.99
975.923	56.77
976.089	59.67
976.255	110.82
976.42	94.35
976.586	99
976.751	104.24
976.917	125.16
977.082	124.58
977.248	32.16
977.413	8.33
977.579	76.92
977.744	77.5
977.91	50.37
978.075	63.55
978.24	99.59
978.406	66.46
978.571	41.27
978.736	67.04
978.902	101.91
979.067	41.07
979.232	33.13
979.397	76.53
979.563	140.27
979.728	50.18
979.893	62.97
980.058	71.88
980.223	99.97
980.388	59.48
980.554	88.35
980.719	43.98
980.884	92.8
981.049	127.49
981.214	58.71
981.379	79.63
981.544	48.05
981.709	101.14
981.874	66.46
982.039	79.05
982.204	71.3
982.368	76.53
982.533	68.59
982.698	103.07
982.863	136.01
983.028	79.44
983.193	95.13
983.357	82.73
983.522	64.52
983.687	72.85
983.852	84.86
984.016	61.81
984.181	77.11
984.346	84.47
984.51	88.15
984.675	86.99
984.839	81.96
985.004	106.37
985.168	88.15
985.333	106.17
985.498	77.31
985.662	88.93
985.827	104.04
985.991	85.06
986.155	76.14
986.32	107.14
986.484	125.55
986.649	69.17
986.813	13.17
986.977	82.15
987.142	93.39
987.306	55.02
987.47	69.75
987.634	70.33
987.799	84.67
987.963	93.19
988.127	93.19
988.291	142.6
988.455	102.3
988.62	67.23
988.784	93.19
988.948	121.29
989.112	55.99
989.276	83.89
989.44	96.87
989.604	49.02
989.768	58.71
989.932	155.58
990.096	51.92
990.26	51.73
990.424	57.35
990.588	61.81
990.752	158.87
990.915	106.37
991.079	79.63
991.243	50.37
991.407	111.99
991.571	53.09
991.734	96.68
991.898	93.77
992.062	158.87
992.226	88.54
992.389	65.87
992.553	23.83
992.717	43.59
992.88	64.91
993.044	74.21
993.207	68.01
993.371	101.72
993.535	71.3
993.698	65.49
993.862	109.47
994.025	99.2
994.189	53.47
994.352	104.24
994.515	91.45
994.679	114.12
994.842	45.14
995.006	94.55
995.169	22.47
995.332	64.32
995.496	97.45
995.659	16.86
995.822	58.32
995.985	62.97
996.149	115.86
996.312	67.23
996.475	116.25
996.638	54.83
996.801	99
996.964	117.22
997.128	67.81
997.291	52.31
997.454	80.41
997.617	23.83
997.78	94.35
997.943	43.4
998.106	95.52
998.269	34.1
998.432	55.02
998.595	63.74
998.758	7.75
998.92	22.86
999.083	8.52
999.246	27.12
999.409	59.67
999.572	20.73
999.735	52.31
999.897	56.38
1000.06	42.62
1000.223	51.54
1000.386	101.33
1000.548	62.39
1000.711	79.82
1000.874	47.27
1001.036	8.72
1001.199	104.62
1001.361	43.4
1001.524	62.77
1001.687	101.33
1001.849	37.59
1002.012	75.37
1002.174	72.66
1002.337	70.33
1002.499	23.06
1002.661	98.81
1002.824	5.62
1002.986	36.62
1003.149	69.75
1003.311	27.71
1003.473	117.02
1003.636	59.67
1003.798	71.11
1003.96	69.17
1004.123	57.93
1004.285	5.23
1004.447	48.05
1004.609	34.87
1004.771	78.08
1004.933	-9.88
1005.096	33.71
1005.258	-14.72
1005.42	30.03
1005.582	81.76
1005.744	38.56
1005.906	25.57
1006.068	65.29
1006.23	1.94
1006.392	26.93
1006.554	17.24
1006.716	89.32
1006.878	55.99
1007.04	8.91
1007.202	21.51
1007.363	36.62
1007.525	62
1007.687	65.1
1007.849	82.34
1008.011	-9.3
1008.172	26.35
1008.334	28.09
1008.496	38.36
1008.658	-15.31
1008.819	21.31
1008.981	20.34
1009.143	15.31
1009.304	31
1009.466	47.66
1009.627	70.52
1009.789	94.55
1009.95	44.95
1010.112	39.33
1010.273	46.89
1010.435	4.46
1010.596	23.64
1010.758	31.97
1010.919	16.86
1011.081	12.59
1011.242	34.49
1011.403	50.18
1011.565	42.82
1011.726	54.83
1011.887	2.52
1012.049	9.88
1012.21	83.7
1012.371	107.72
1012.532	-43.01
1012.693	37.39
1012.855	34.29
1013.016	20.92
1013.177	42.62
1013.338	37.39
1013.499	96.68
1013.66	66.65
1013.821	60.64
1013.982	34.49
1014.143	14.34
1014.304	25.96
1014.465	30.42
1014.626	46.89
1014.787	12.4
1014.948	105.59
1015.109	-40.49
1015.27	70.52
1015.431	25.38
1015.592	2.91
1015.752	76.72
1015.913	52.31
1016.074	41.46
1016.235	19.37
1016.395	10.07
1016.556	19.96
1016.717	25.57
1016.877	74.98
1017.038	8.91
1017.199	36.62
1017.359	11.04
1017.52	36.04
1017.681	24.22
1017.841	49.21
1018.002	9.3
1018.162	32.74
1018.323	93.58
1018.483	17.63
1018.644	29.84
1018.804	-0.97
1018.964	12.21
1019.125	16.47
1019.285	34.29
1019.446	-2.32
1019.606	-0.39
1019.766	-15.69
1019.926	35.07
1020.087	37.2
1020.247	-14.14
1020.407	30.61
1020.567	52.31
1020.728	12.79
1020.888	-15.31
1021.048	16.08
1021.208	3.68
1021.368	-4.65
1021.528	52.12
1021.688	38.94
1021.848	46.11
1022.008	23.25
1022.168	13.17
1022.328	2.52
1022.488	25.77
1022.648	-3.87
1022.808	47.86
1022.968	29.84
1023.128	4.26
1023.288	5.23
1023.448	-6.2
1023.608	22.67
1023.767	35.07
1023.927	-17.05
1024.087	-9.88
1024.247	-22.47
1024.406	29.84
1024.566	-18.21
1024.726	-3.1
1024.885	41.46
1025.045	33.91
1025.205	-14.53
1025.364	26.54
1025.524	21.7
1025.683	-27.51
1025.843	-5.04
1026.003	25.57
1026.162	53.28
1026.321	52.12
1026.481	37.97
1026.64	4.84
1026.8	4.46
1026.959	18.02
1027.119	34.49
1027.278	21.12
1027.437	11.82
1027.597	-5.62
1027.756	44.56
1027.915	49.79
1028.074	75.56
1028.234	-18.41
1028.393	28.48
1028.552	-21.7
1028.711	-49.6
1028.87	39.91
1029.03	-26.35
1029.189	20.54
1029.348	-37.59
1029.507	2.13
1029.666	11.24
1029.825	-12.4
1029.984	9.49
1030.143	28.87
1030.302	-5.62
1030.461	-37.59
1030.62	9.69
1030.779	30.81
1030.938	0.58
1031.097	-39.91
1031.255	26.74
1031.414	50.18
1031.573	25.57
1031.732	-23.25
1031.891	4.46
1032.049	49.41
1032.208	33.32
1032.367	-7.75
1032.525	-4.07
1032.684	23.06
1032.843	2.13
1033.001	-36.81
1033.16	147.05
1033.319	46.69
1033.477	30.03
1033.636	-2.32
1033.794	-5.81
1033.953	41.07
1034.111	27.51
1034.27	-14.92
1034.428	29.45
1034.587	-21.12
1034.745	40.3
1034.903	14.92
1035.062	37.39
1035.22	-37.78
1035.378	21.12
1035.537	-26.35
1035.695	14.14
1035.853	-3.49
1036.011	61.81
1036.17	16.66
1036.328	-46.11
1036.486	28.29
1036.644	17.63
1036.802	-58.71
1036.96	0.39
1037.119	-18.99
1037.277	-12.01
1037.435	-34.1
1037.593	-13.76
1037.751	-7.75
1037.909	10.66
1038.067	10.66
