Data from oakcork_FLMT105791__306__17-34-52-051.txt Node

Date: Mon Mar 20 17:34:52 GMT 2023
User: antho
Spectrometer: FLMT10579
Trigger mode: 0
Integration Time (sec): 1.000000E-1
Scans to average: 10
Electric dark correction enabled: true
Nonlinearity correction enabled: false
Boxcar width: 0
XAxis mode: Wavelengths
Number of Pixels in Spectrum: 3648
>>>>>Begin Spectral Data<<<<<
345.248	-133.65
345.464	-133.65
345.681	-133.65
345.898	-167.95
346.114	-144.5
346.331	-38.33
346.548	24.25
346.764	6.43
346.981	-7.91
347.197	-27.87
347.414	38.78
347.631	-23.02
347.847	62.23
348.064	-10.04
348.28	12.24
348.497	-21.09
348.713	-15.66
348.93	28.9
349.146	43.24
349.363	12.63
349.579	1.58
349.796	11.27
350.012	-2.68
350.229	32.97
350.445	-1.52
350.661	23.67
350.878	5.07
351.094	9.72
351.311	24.83
351.527	-6.36
351.743	-17.21
351.96	32
352.176	52.15
352.392	19.41
352.609	35.1
352.825	6.23
353.041	3.13
353.257	-15.85
353.474	11.85
353.69	36.07
353.906	19.02
354.122	-16.24
354.339	66.88
354.555	7.2
354.771	7.59
354.987	57.38
355.203	81.79
355.42	8.56
355.636	24.83
355.852	27.54
356.068	17.86
356.284	-17.99
356.5	68.43
356.716	10.3
356.932	32.97
357.148	29.68
357.364	15.92
357.58	63
357.796	55.06
358.012	52.15
358.228	36.65
358.444	-37.94
358.66	58.16
358.876	52.93
359.092	-2.87
359.308	19.21
359.524	31.61
359.74	-12.95
359.956	9.14
360.172	26.58
360.388	46.53
360.604	-8.49
360.819	81.79
361.035	23.48
361.251	47.5
361.467	4.1
361.683	31.61
361.898	60.09
362.114	68.81
362.33	11.46
362.546	46.34
362.762	36.26
362.977	20.57
363.193	-8.49
363.409	40.14
363.624	-1.52
363.84	-13.34
364.056	-6.75
364.271	17.47
364.487	30.64
364.703	17.47
364.918	1.19
365.134	11.85
365.35	6.04
365.565	96.71
365.781	9.14
365.996	32.78
366.212	66.1
366.427	38.01
366.643	-7.14
366.858	5.46
367.074	-27.09
367.289	45.18
367.505	111.24
367.72	-7.14
367.936	6.04
368.151	43.82
368.367	52.34
368.582	22.7
368.798	-1.52
369.013	70.94
369.228	26.19
369.444	15.73
369.659	79.47
369.874	27.35
370.09	83.15
370.305	-66.04
370.52	26.38
370.736	63.19
370.951	19.79
371.166	58.35
371.381	72.11
371.597	47.5
371.812	9.72
372.027	-7.72
372.242	-0.74
372.458	88.57
372.673	1.19
372.888	8.17
373.103	57.96
373.318	85.67
373.533	65.91
373.749	52.34
373.964	-18.57
374.179	76.95
374.394	5.84
374.609	65.91
374.824	3.91
375.039	61.84
375.254	-6.75
375.469	85.09
375.684	45.56
375.899	68.04
376.114	32.19
376.329	38.59
376.544	44.79
376.759	55.06
376.974	2.55
377.189	25.41
377.404	13.21
377.619	51.57
377.834	-33.29
378.049	-6.56
378.264	-18.95
378.478	14.95
378.693	22.12
378.908	58.74
379.123	11.66
379.338	67.84
379.553	44.01
379.767	47.89
379.982	59.51
380.197	47.5
380.412	20.18
380.626	47.69
380.841	111.82
381.056	36.46
381.271	66.68
381.485	-4.23
381.7	5.84
381.915	28.32
382.129	15.92
382.344	19.21
382.559	7.59
382.773	53.51
382.988	-1.13
383.202	19.6
383.417	27.16
383.632	92.06
383.846	29.68
384.061	48.47
384.275	14.37
384.49	47.11
384.704	62.61
384.919	56.99
385.133	35.88
385.348	32.78
385.562	12.04
385.777	48.08
385.991	23.28
386.206	37.43
386.42	24.44
386.634	54.28
386.849	5.07
387.063	35.88
387.277	-26.9
387.492	16.69
387.706	-9.85
387.92	-13.92
388.135	61.26
388.349	43.63
388.563	31.81
388.778	46.92
388.992	45.18
389.206	36.07
389.42	106.79
389.635	38.01
389.849	55.83
390.063	55.83
390.277	22.12
390.491	99.81
390.706	35.1
390.92	70.36
391.134	24.06
391.348	82.96
391.562	-10.24
391.776	19.6
391.99	2.55
392.205	59.32
392.419	11.66
392.633	13.4
392.847	70.17
393.061	44.21
393.275	78.31
393.489	31.03
393.703	25.99
393.917	77.92
394.131	35.88
394.345	62.61
394.559	53.12
394.773	44.01
394.986	59.71
395.2	32.39
395.414	61.45
395.628	-23.41
395.842	42.85
396.056	13.01
396.27	3.52
396.484	44.01
396.697	43.24
396.911	90.12
397.125	47.89
397.339	54.67
397.553	32.58
397.766	101.94
397.98	57.96
398.194	89.16
398.408	29.09
398.621	73.66
398.835	68.43
399.049	52.15
399.262	77.53
399.476	83.34
399.69	77.34
399.903	84.7
400.117	37.62
400.331	71.14
400.544	20.18
400.758	168.98
400.971	55.25
401.185	58.54
401.398	22.51
401.612	66.88
401.826	68.62
402.039	57.96
402.253	30.06
402.466	79.66
402.68	54.48
402.893	70.94
403.106	69.01
403.32	70.75
403.533	83.54
403.747	30.84
403.96	69.39
404.174	71.14
404.387	-1.52
404.6	57.58
404.814	94.58
405.027	65.52
405.24	52.93
405.454	20.18
405.667	73.27
405.88	-3.46
406.094	47.69
406.307	113.57
406.52	60.87
406.733	41.69
406.947	-6.56
407.16	123.84
407.373	87.99
407.586	41.3
407.799	26.19
408.012	81.41
408.226	46.34
408.439	107.95
408.652	16.5
408.865	76.76
409.078	71.53
409.291	69.59
409.504	44.4
409.717	69.78
409.93	72.49
410.143	65.13
410.357	39.17
410.57	33.16
410.783	13.21
410.996	59.71
411.209	45.76
411.421	114.15
411.634	87.22
411.847	57.19
412.06	45.18
412.273	66.1
412.486	65.91
412.699	130.62
412.912	57.38
413.125	70.94
413.338	89.74
413.55	104.46
413.763	65.52
413.976	66.68
414.189	39.75
414.402	52.15
414.615	114.54
414.827	33.16
415.04	84.12
415.253	100.2
415.466	59.71
415.678	98.46
415.891	65.71
416.104	54.86
416.316	60.48
416.529	51.38
416.742	84.89
416.954	70.36
417.167	48.66
417.38	72.69
417.592	119.57
417.805	43.82
418.017	12.63
418.23	88.19
418.442	44.21
418.655	47.5
418.868	82.18
419.08	123.45
419.293	83.54
419.505	72.11
419.718	90.9
419.93	117.44
420.142	67.65
420.355	101.56
420.567	118.22
420.78	84.31
420.992	70.94
421.205	130.23
421.417	24.64
421.629	41.69
421.842	33.74
422.054	33.16
422.266	74.43
422.479	114.15
422.691	61.64
422.903	110.47
423.115	44.21
423.328	65.52
423.54	110.27
423.752	69.98
423.964	45.76
424.177	98.07
424.389	83.34
424.601	152.12
424.813	60.68
425.025	124.61
425.238	107.37
425.45	73.27
425.662	71.72
425.874	330.95
426.086	67.84
426.298	98.65
426.51	93.42
426.722	54.28
426.934	65.71
427.146	97.87
427.358	35.88
427.57	106.21
427.782	50.6
427.994	83.34
428.206	66.88
428.418	35.1
428.63	80.24
428.842	87.41
429.054	93.61
429.266	114.54
429.478	24.64
429.69	94
429.902	42.08
430.114	78.11
430.325	92.45
430.537	51.57
430.749	52.73
430.961	59.9
431.173	51.96
431.384	93.81
431.596	-3.84
431.808	59.9
432.02	39.36
432.231	85.86
432.443	87.99
432.655	93.22
432.867	53.7
433.078	98.07
433.29	113.96
433.502	91.87
433.713	125.19
433.925	84.7
434.136	118.99
434.348	62.03
434.56	47.69
434.771	161.23
434.983	40.33
435.194	49.05
435.406	61.06
435.617	105.43
435.829	138.37
436.04	89.54
436.252	101.75
436.463	119.19
436.675	121.12
436.886	82.37
437.098	109.5
437.309	121.71
437.521	75.98
437.732	107.37
437.943	88.19
438.155	87.41
438.366	14.37
438.578	125.77
438.789	99.62
439	130.62
439.211	95.16
439.423	88.77
439.634	114.73
439.845	110.27
440.057	99.81
440.268	129.84
440.479	54.09
440.69	120.35
440.902	90.9
441.113	80.82
441.324	78.11
441.535	98.84
441.746	139.14
441.957	51.76
442.168	90.51
442.38	85.86
442.591	109.5
442.802	81.99
443.013	96.13
443.224	128.29
443.435	92.06
443.646	110.08
443.857	103.88
444.068	74.82
444.279	81.41
444.49	139.14
444.701	95.94
444.912	183.32
445.123	136.82
445.334	136.04
445.545	111.44
445.756	89.54
445.967	67.46
446.178	122.29
446.388	138.56
446.599	85.28
446.81	135.46
447.021	112.99
447.232	159.29
447.443	152.71
447.653	91.67
447.864	157.16
448.075	112.02
448.286	125.97
448.496	115.89
448.707	140.89
448.918	82.57
449.129	198.82
449.339	97.87
449.55	100.78
449.761	72.88
449.971	157.16
450.182	88.57
450.393	129.07
450.603	110.08
450.814	152.32
451.024	163.75
451.235	115.89
451.446	158.52
451.656	168.98
451.867	99.23
452.077	123.06
452.288	168.59
452.498	177.31
452.709	124.42
452.919	126.16
453.13	110.27
453.34	168.01
453.55	72.49
453.761	161.23
453.971	124.03
454.182	139.92
454.392	164.33
454.602	187.19
454.813	175.37
455.023	156.97
455.233	65.33
455.444	123.84
455.654	76.56
455.864	121.32
456.075	136.04
456.285	119.96
456.495	130.62
456.705	144.76
456.916	184.87
457.126	168.01
457.336	118.8
457.546	93.22
457.756	104.27
457.967	166.46
458.177	119.96
458.387	148.64
458.597	118.02
458.807	116.67
459.017	148.44
459.227	127.52
459.437	126.16
459.647	137.98
459.857	157.55
460.068	118.61
460.278	165.69
460.488	145.92
460.698	199.01
460.908	139.53
461.117	94.97
461.327	109.11
461.537	111.82
461.747	114.15
461.957	118.22
462.167	236.99
462.377	133.14
462.587	141.86
462.797	170.14
463.007	144.37
463.216	157.74
463.426	183.51
463.636	174.21
463.846	77.34
464.056	119.19
464.265	181.38
464.475	135.46
464.685	128.49
464.895	160.65
465.104	130.62
465.314	158.32
465.524	144.76
465.733	116.09
465.943	196.1
466.153	192.81
466.362	150.96
466.572	160.65
466.782	125.58
466.991	153.48
467.201	199.2
467.41	104.85
467.62	155.42
467.829	150.77
468.039	162.97
468.249	151.93
468.458	147.47
468.668	176.73
468.877	174.21
469.086	186.03
469.296	198.82
469.505	118.02
469.715	216.06
469.924	182.93
470.134	212.77
470.343	241.64
470.552	162.59
470.762	139.14
470.971	141.86
471.18	179.64
471.39	147.09
471.599	138.17
471.808	193.97
472.018	147.09
472.227	201.14
472.436	186.42
472.645	165.88
472.855	140.69
473.064	196.3
473.273	156.39
473.482	183.12
473.691	210.25
473.901	182.15
474.11	173.24
474.319	251.32
474.528	202.69
474.737	209.86
474.946	190.68
475.155	190.1
475.364	216.64
475.573	183.12
475.783	193
475.992	203.27
476.201	193.97
476.41	189.52
476.619	160.84
476.828	206.37
477.037	180.02
477.245	178.86
477.454	229.43
477.663	170.72
477.872	171.5
478.081	241.64
478.29	159.68
478.499	293.95
478.708	186.61
478.917	258.49
479.125	169.37
479.334	218.39
479.543	195.14
479.752	201.72
479.961	205.21
480.169	231.56
480.378	183.12
480.587	287.36
480.796	237.95
481.004	202.69
481.213	207.15
481.422	224.78
481.63	213.35
481.839	216.45
482.048	244.74
482.256	227.49
482.465	227.88
482.674	235.82
482.882	245.51
483.091	299.95
483.299	231.37
483.508	249.19
483.716	216.84
483.925	225.94
484.134	186.61
484.342	205.6
484.551	238.73
484.759	222.45
484.967	240.67
485.176	275.54
485.384	218.39
485.593	266.43
485.801	245.32
486.01	232.92
486.218	222.65
486.426	215.09
486.635	223.04
486.843	214.51
487.051	239.31
487.26	225.17
487.468	263.33
487.676	260.43
487.885	211.02
488.093	229.62
488.301	279.22
488.509	233.69
488.717	267.21
488.926	248.03
489.134	231.37
489.342	257.13
489.55	224.2
489.758	231.75
489.967	211.8
490.175	338.51
490.383	217.03
490.591	316.42
490.799	200.75
491.007	303.83
491.215	258.3
491.423	284.84
491.631	240.86
491.839	277.67
492.047	284.45
492.255	241.25
492.463	225.36
492.671	261.59
492.879	309.83
493.087	272.25
493.295	265.47
493.503	289.68
493.711	303.05
493.919	309.25
494.127	319.91
494.334	325.14
494.542	242.6
494.75	285.62
494.958	291.82
495.166	309.64
495.374	275.73
495.581	264.69
495.789	293.37
495.997	310.8
496.205	265.27
496.412	265.08
496.62	278.25
496.828	318.55
497.035	271.28
497.243	292.98
497.451	304.99
497.658	304.99
497.866	317.78
498.074	344.51
498.281	267.6
498.489	354.59
498.696	298.02
498.904	282.13
499.112	313.9
499.319	354.78
499.527	299.18
499.734	322.82
499.942	247.83
500.149	264.3
500.357	294.14
500.564	265.27
500.771	297.05
500.979	267.79
501.186	285.62
501.394	284.26
501.601	310.03
501.808	320.49
502.016	288.72
502.223	299.57
502.43	315.45
502.638	282.9
502.845	302.86
503.052	341.41
503.26	288.33
503.467	383.07
503.674	306.15
503.881	323.01
504.089	385.2
504.296	340.64
504.503	276.7
504.71	337.15
504.917	280.19
505.125	334.05
505.332	326.5
505.539	330.95
505.746	348.58
505.953	345.29
506.16	323.2
506.367	380.16
506.574	367.57
506.781	379.39
506.988	304.99
507.195	347.61
507.402	330.76
507.609	361.56
507.816	318.55
508.023	334.44
508.23	311.19
508.437	268.37
508.644	365.63
508.851	401.09
509.058	379.58
509.265	341.03
509.472	356.14
509.679	433.25
509.885	337.73
510.092	355.36
510.299	329.6
510.506	336.57
510.713	358.46
510.92	379.2
511.126	362.53
511.333	383.65
511.54	382.1
511.746	400.9
511.953	383.07
512.16	359.63
512.367	322.04
512.573	366.41
512.78	367.38
512.987	336.57
513.193	396.63
513.4	284.84
513.606	349.16
513.813	383.46
514.02	373.58
514.226	440.42
514.433	409.81
514.639	345.68
514.846	392.76
515.052	338.31
515.259	349.55
515.465	363.89
515.672	351.49
515.878	453.4
516.085	352.46
516.291	399.54
516.497	342.77
516.704	356.91
516.91	354.78
517.117	331.73
517.323	299.95
517.529	366.41
517.736	354.2
517.942	359.24
518.148	331.92
518.354	399.15
518.561	386.36
518.767	396.63
518.973	396.83
519.179	401.48
519.386	356.53
519.592	355.95
519.798	356.14
520.004	417.17
520.21	359.63
520.417	421.63
520.623	416.78
520.829	441.39
521.035	421.82
521.241	422.21
521.447	433.06
521.653	495.44
521.859	396.44
522.065	439.45
522.271	492.15
522.477	446.81
522.683	487.5
522.889	442.16
523.095	467.35
523.301	436.74
523.507	419.69
523.713	459.21
523.919	442.36
524.125	484.59
524.331	418.91
524.537	504.36
524.742	471.42
524.948	484.79
525.154	494.86
525.36	589.41
525.566	495.06
525.772	515.79
525.977	442.74
526.183	516.95
526.389	494.67
526.595	460.18
526.8	450.11
527.006	459.99
527.212	451.85
527.417	441.39
527.623	409.61
527.829	470.45
528.034	488.28
528.24	480.53
528.446	446.62
528.651	512.49
528.857	517.72
529.062	535.16
529.268	456.11
529.473	527.02
529.679	478.78
529.884	577.98
530.09	518.31
530.295	557.25
530.501	561.32
530.706	528.77
530.912	455.14
531.117	530.9
531.323	496.99
531.528	536.52
531.733	541.56
531.939	505.52
532.144	563.84
532.35	521.99
532.555	566.55
532.76	575.07
532.966	559.77
533.171	528.77
533.376	537.49
533.581	502.81
533.787	555.51
533.992	536.71
534.197	585.73
534.402	521.41
534.607	540.39
534.813	626.03
535.018	498.35
535.223	515.4
535.428	551.24
535.633	615.57
535.838	567.71
536.043	553.76
536.249	622.93
536.454	571.59
536.659	559.38
536.864	538.46
537.069	559.38
537.274	583.99
537.479	583.79
537.684	587.28
537.889	536.71
538.094	641.34
538.299	560.35
538.504	585.54
538.708	570.04
538.913	595.22
539.118	576.04
539.323	602.59
539.528	555.12
539.733	592.71
539.938	591.74
540.142	607.82
540.347	545.62
540.552	595.42
540.757	558.8
540.962	556.86
541.166	537.68
541.371	536.32
541.576	576.82
541.781	506.68
541.985	578.17
542.19	594.84
542.395	622.35
542.599	627.97
542.804	611.3
543.008	606.85
543.213	601.81
543.418	557.64
543.622	598.13
543.827	552.21
544.031	619.44
544.236	620.8
544.44	577.4
544.645	656.06
544.849	587.67
545.054	605.49
545.258	684.93
545.463	630.1
545.667	561.9
545.872	625.84
546.076	607.82
546.281	623.9
546.485	576.62
546.689	627.19
546.894	639.59
547.098	574.11
547.302	556.67
547.507	586.31
547.711	603.94
547.915	682.22
548.119	579.14
548.324	595.22
548.528	646.95
548.732	580.69
548.936	650.25
549.141	657.42
549.345	576.82
549.549	582.63
549.753	625.64
549.957	675.63
550.161	668.27
550.366	603.17
550.57	572.94
550.774	611.11
550.978	601.81
551.182	634.36
551.386	608.59
551.59	574.11
551.794	610.72
551.998	629.52
552.202	603.75
552.406	580.5
552.61	631.45
552.814	591.54
553.018	659.55
553.222	642.5
553.426	605.69
553.63	671.56
553.833	585.15
554.037	574.88
554.241	622.74
554.445	608.4
554.649	604.14
554.853	579.72
555.056	654.12
555.26	669.04
555.464	626.42
555.668	597.74
555.871	635.72
556.075	650.83
556.279	601.81
556.483	571.2
556.686	624.09
556.89	614.6
557.094	620.02
557.297	573.33
557.501	636.69
557.704	565.97
557.908	618.28
558.112	573.14
558.315	641.34
558.519	589.22
558.722	614.21
558.926	599.49
559.129	567.13
559.333	580.11
559.536	547.95
559.74	557.83
559.943	554.34
560.147	540.78
560.35	567.71
560.553	588.64
560.757	505.13
560.96	650.05
561.164	554.54
561.367	642.11
561.57	580.89
561.774	602.2
561.977	557.64
562.18	581.47
562.384	659.55
562.587	570.42
562.79	548.53
562.993	569.26
563.197	613.82
563.4	609.56
563.603	620.41
563.806	655.29
564.009	542.91
564.212	579.72
564.416	540.78
564.619	595.42
564.822	533.81
565.025	610.14
565.228	567.71
565.431	580.31
565.634	506.49
565.837	542.33
566.04	513.66
566.243	558.41
566.446	469.29
566.649	556.67
566.852	510.36
567.055	532.84
567.258	578.17
567.461	591.35
567.664	585.54
567.867	493.12
568.07	535.16
568.273	546.79
568.475	571.59
568.678	517.72
568.881	526.06
569.084	543.49
569.287	439.64
569.489	487.11
569.692	559.77
569.895	542.14
570.098	476.84
570.3	483.04
570.503	436.74
570.706	456.89
570.909	452.04
571.111	441.78
571.314	475.49
571.516	508.04
571.719	516.37
571.922	493.7
572.124	456.89
572.327	494.67
572.529	429.38
572.732	409.61
572.935	474.52
573.137	508.04
573.34	440.03
573.542	491.96
573.745	476.07
573.947	493.51
574.15	450.3
574.352	408.65
574.554	536.13
574.757	451.08
574.959	459.6
575.162	438.87
575.364	457.66
575.566	530.51
575.769	404.96
575.971	444.68
576.173	392.76
576.376	426.28
576.578	484.4
576.78	527.41
576.982	399.54
577.185	414.65
577.387	414.65
577.589	414.26
577.791	456.31
577.993	469.68
578.196	448.17
578.398	480.14
578.6	478.39
578.802	423.18
579.004	404.58
579.206	391.4
579.408	442.74
579.61	426.66
579.812	468.13
580.014	408.84
580.216	400.51
580.418	421.43
580.62	391.21
580.822	379
581.024	428.41
581.226	439.26
581.428	417.75
581.63	481.69
581.832	411.94
582.034	466.19
582.236	415.23
582.438	465.8
582.64	491.57
582.841	463.28
583.043	512.11
583.245	422.98
583.447	447.2
583.649	414.46
583.85	442.74
584.052	481.3
584.254	394.89
584.456	460.57
584.657	378.42
584.859	437.71
585.061	402.06
585.262	407.48
585.464	390.24
585.666	449.14
585.867	402.64
586.069	472.58
586.27	436.54
586.472	430.15
586.674	424.53
586.875	405.35
587.077	395.86
587.278	425.5
587.48	392.37
587.681	504.16
587.883	434.61
588.084	389.46
588.285	390.63
588.487	434.03
588.688	421.82
588.89	376.29
589.091	374.16
589.292	402.45
589.494	379.78
589.695	361.56
589.896	333.08
590.098	346.65
590.299	386.17
590.5	344.71
590.702	335.02
590.903	371.25
591.104	446.43
591.305	376.48
591.507	426.86
591.708	394.7
591.909	376.48
592.11	459.79
592.311	411.36
592.512	368.73
592.714	330.95
592.915	314.48
593.116	389.27
593.317	381.71
593.518	345.48
593.719	341.03
593.92	412.33
594.121	432.28
594.322	392.18
594.523	376.87
594.724	324.56
594.925	366.6
595.126	389.46
595.327	397.8
595.528	378.81
595.729	403.03
595.929	357.11
596.13	368.35
596.331	387.91
596.532	400.31
596.733	424.73
596.934	413.88
597.135	402.83
597.335	386.36
597.536	352.65
597.737	400.7
597.938	353.04
598.138	445.07
598.339	361.95
598.54	391.79
598.74	363.89
598.941	388.88
599.142	437.13
599.342	380.16
599.543	365.63
599.744	368.54
599.944	400.9
600.145	368.15
600.345	372.8
600.546	453.4
600.746	399.54
600.947	448.56
601.147	386.95
601.348	418.91
601.548	348.97
601.749	378.23
601.949	330.95
602.15	359.43
602.35	392.56
602.551	409.03
602.751	330.57
602.951	372.8
603.152	319.13
603.352	400.9
603.552	370.86
603.753	399.15
603.953	398.76
604.153	404.19
604.354	364.47
604.554	389.66
604.754	366.99
604.954	344.32
605.155	362.34
605.355	355.17
605.555	388.11
605.755	396.83
605.955	383.26
606.155	392.76
606.356	370.48
606.556	386.36
606.756	397.99
606.956	310.61
607.156	391.98
607.356	360.4
607.556	391.4
607.756	349.36
607.956	390.63
608.156	379.97
608.356	350.52
608.556	405.74
608.756	407.87
608.956	338.12
609.156	374.35
609.356	331.34
609.556	345.48
609.755	364.47
609.955	355.75
610.155	388.3
610.355	351.68
610.555	343.74
610.755	372.8
610.954	313.9
611.154	378.03
611.354	393.92
611.554	351.3
611.753	324.75
611.953	306.73
612.153	365.05
612.352	368.15
612.552	330.37
612.752	286.39
612.951	336.76
613.151	379
613.351	312.35
613.55	319.72
613.75	364.47
613.949	348
614.149	377.26
614.348	338.7
614.548	352.07
614.747	285.62
614.947	309.25
615.146	280.19
615.346	353.23
615.545	325.33
615.745	349.36
615.944	353.62
616.144	325.72
616.343	358.46
616.542	298.21
616.742	320.1
616.941	348.39
617.14	271.67
617.34	326.3
617.539	329.21
617.738	294.92
617.938	367.38
618.137	347.03
618.336	291.82
618.535	340.45
618.734	305.96
618.934	325.33
619.133	328.82
619.332	337.54
619.531	310.22
619.73	280.77
619.929	370.28
620.128	352.07
620.328	369.7
620.527	316.62
620.726	312.93
620.925	331.34
621.124	293.95
621.323	342.19
621.522	305.57
621.721	284.84
621.92	301.31
622.119	329.4
622.318	286.78
622.517	318.94
622.715	324.37
622.914	255.97
623.113	289.1
623.312	260.62
623.511	333.28
623.71	285.42
623.909	310.42
624.107	321.65
624.306	242.41
624.505	289.88
624.704	290.85
624.902	279.22
625.101	353.04
625.3	305.77
625.499	295.5
625.697	298.21
625.896	279.22
626.095	312.55
626.293	232.72
626.492	270.7
626.69	315.07
626.889	257.13
627.088	314.68
627.286	287.36
627.485	264.69
627.683	250.93
627.882	312.55
628.08	223.04
628.279	273.41
628.477	311.97
628.676	261.2
628.874	307.7
629.073	256.75
629.271	242.22
629.469	305.38
629.668	276.12
629.866	271.67
630.065	285.42
630.263	289.68
630.461	253.45
630.66	235.24
630.858	332.89
631.056	317.58
631.254	299.95
631.453	219.16
631.651	334.63
631.849	302.08
632.047	289.3
632.245	283.29
632.444	264.5
632.642	280.19
632.84	300.92
633.038	246.67
633.236	246.67
633.434	249
633.632	229.82
633.83	258.88
634.028	310.03
634.227	271.67
634.425	340.45
634.623	284.84
634.821	301.12
635.019	259.85
635.216	243.57
635.414	300.53
635.612	295.69
635.81	264.5
636.008	325.92
636.206	266.43
636.404	303.05
636.602	245.9
636.8	278.64
636.997	288.91
637.195	329.6
637.393	268.57
637.591	302.86
637.789	283.68
637.986	264.88
638.184	254.42
638.382	299.37
638.58	294.92
638.777	330.37
638.975	267.79
639.173	268.18
639.37	287.17
639.568	296.66
639.765	331.92
639.963	265.27
640.161	294.14
640.358	276.51
640.556	241.25
640.753	255.2
640.951	254.03
641.148	278.45
641.346	271.08
641.543	264.3
641.741	303.83
641.938	254.62
642.136	264.5
642.333	261.78
642.531	311.58
642.728	322.62
642.925	268.37
643.123	243.77
643.32	295.11
643.517	270.12
643.715	280
643.912	260.62
644.109	258.3
644.306	260.23
644.504	253.26
644.701	285.62
644.898	277.87
645.095	268.76
645.293	269.73
645.49	276.32
645.687	288.72
645.884	276.12
646.081	206.76
646.278	252.48
646.475	248.22
646.672	250.16
646.87	287.55
647.067	260.82
647.264	271.67
647.461	242.22
647.658	225.55
647.855	269.53
648.052	242.41
648.249	185.25
648.446	217.22
648.642	244.54
648.839	258.88
649.036	216.45
649.233	200.17
649.43	191.07
649.627	199.98
649.824	231.37
650.021	202.89
650.217	211.8
650.414	235.82
650.611	248.61
650.808	239.12
651.004	241.44
651.201	233.11
651.398	273.8
651.595	238.15
651.791	225.17
651.988	272.05
652.185	235.44
652.381	259.85
652.578	214.32
652.775	208.5
652.971	195.91
653.168	210.05
653.364	242.99
653.561	194.75
653.757	229.43
653.954	217.22
654.15	200.17
654.347	280.38
654.543	221.49
654.74	188.55
654.936	183.32
655.133	230.01
655.329	208.7
655.525	233.69
655.722	254.03
655.918	228.85
656.115	266.43
656.311	178.86
656.507	197.65
656.704	148.64
656.9	196.88
657.096	205.6
657.292	187.19
657.489	224.39
657.685	204.63
657.881	194.55
658.077	205.4
658.273	208.7
658.47	258.49
658.666	201.34
658.862	231.37
659.058	223.62
659.254	249.38
659.45	168.2
659.646	215.48
659.842	207.73
660.038	232.53
660.234	169.75
660.43	192.42
660.626	256.55
660.822	234.66
661.018	205.02
661.214	218.39
661.41	187.77
661.606	222.26
661.802	232.92
661.998	199.79
662.194	199.59
662.39	252.68
662.586	240.47
662.781	234.08
662.977	224.97
663.173	223.81
663.369	192.62
663.564	239.5
663.76	247.25
663.956	198.43
664.152	246.67
664.347	184.48
664.543	211.22
664.739	220.71
664.934	151.16
665.13	157.16
665.326	237.76
665.521	219.55
665.717	192.23
665.912	179.25
666.108	142.82
666.304	165.88
666.499	187.77
666.695	107.37
666.89	213.15
667.086	215.48
667.281	219.94
667.477	251.9
667.672	187.58
667.867	211.02
668.063	202.11
668.258	179.05
668.454	192.42
668.649	276.7
668.844	219.35
669.04	219.74
669.235	199.59
669.43	188.55
669.626	163.94
669.821	187.39
670.016	159.87
670.211	200.37
670.407	158.52
670.602	182.54
670.797	167.43
670.992	224.97
671.187	179.83
671.382	244.35
671.578	178.47
671.773	215.48
671.968	132.17
672.163	203.08
672.358	216.06
672.553	194.17
672.748	167.82
672.943	234.66
673.138	185.25
673.333	222.26
673.528	163.94
673.723	214.51
673.918	169.37
674.113	153.29
674.308	264.3
674.503	205.4
674.698	231.56
674.892	216.06
675.087	225.55
675.282	211.8
675.477	175.95
675.672	213.35
675.867	202.69
676.061	144.96
676.256	154.06
676.451	190.49
676.646	202.89
676.84	151.93
677.035	146.12
677.23	166.27
677.424	231.37
677.619	187.39
677.814	200.17
678.008	211.41
678.203	143.21
678.397	158.71
678.592	205.21
678.787	235.24
678.981	158.52
679.176	209.47
679.37	199.98
679.565	164.72
679.759	158.71
679.954	206.37
680.148	234.66
680.342	218.97
680.537	203.08
680.731	168.4
680.926	202.89
681.12	218.77
681.314	189.71
681.509	171.89
681.703	174.4
681.897	213.74
682.092	182.35
682.286	180.41
682.48	240.67
682.674	217.03
682.869	167.82
683.063	178.09
683.257	262.56
683.451	176.34
683.645	173.63
683.839	179.44
684.034	188.35
684.228	214.51
684.422	161.81
684.616	163.36
684.81	243.57
685.004	189.9
685.198	176.54
685.392	234.66
685.586	193
685.78	200.75
685.974	167.62
686.168	196.49
686.362	258.88
686.556	168.79
686.75	156.39
686.944	158.71
687.138	207.15
687.331	150.57
687.525	188.55
687.719	124.03
687.913	181.96
688.107	176.15
688.301	122.09
688.494	161.04
688.688	143.21
688.882	103.3
689.076	122.09
689.269	162.59
689.463	210.83
689.657	116.28
689.85	150.38
690.044	134.3
690.238	132.94
690.431	149.61
690.625	156.97
690.818	177.12
691.012	197.85
691.205	178.86
691.399	142.63
691.593	152.71
691.786	199.2
691.98	192.81
692.173	220.9
692.366	207.34
692.56	227.1
692.753	243.38
692.947	146.89
693.14	235.82
693.333	215.67
693.527	143.02
693.72	211.02
693.914	186.03
694.107	200.56
694.3	228.85
694.493	180.22
694.687	241.05
694.88	161.04
695.073	248.42
695.266	204.44
695.46	218.39
695.653	234.08
695.846	220.32
696.039	171.89
696.232	215.67
696.425	234.47
696.618	238.34
696.812	226.14
697.005	286.39
697.198	291.43
697.391	266.82
697.584	273.8
697.777	301.89
697.97	282.13
698.163	293.56
698.356	256.75
698.549	344.51
698.742	294.53
698.935	250.55
699.127	300.73
699.32	254.62
699.513	250.55
699.706	306.54
699.899	292.2
700.092	278.64
700.285	309.64
700.477	257.52
700.67	299.37
700.863	321.85
701.056	359.24
701.248	371.64
701.441	377.06
701.634	284.07
701.826	404.38
702.019	303.83
702.212	374.55
702.404	310.42
702.597	329.21
702.79	311.19
702.982	343.55
703.175	375.13
703.367	378.23
703.56	384.43
703.752	449.53
703.945	402.25
704.137	427.83
704.33	426.47
704.522	392.95
704.715	415.62
704.907	412.91
705.1	426.47
705.292	443.52
705.484	416.01
705.677	456.69
705.869	469.68
706.061	482.66
706.254	507.65
706.446	450.49
706.638	436.16
706.831	528.77
707.023	448.17
707.215	519.86
707.407	529.93
707.599	495.25
707.792	527.61
707.984	502.23
708.176	551.05
708.368	503
708.56	521.41
708.752	532.06
708.944	515.59
709.136	547.95
709.329	538.84
709.521	639.4
709.713	609.17
709.905	625.45
710.097	632.23
710.289	540.2
710.481	619.83
710.672	610.14
710.864	570.04
711.056	648.89
711.248	648.7
711.44	592.9
711.632	614.21
711.824	640.37
712.016	707.6
712.207	691.9
712.399	651.8
712.591	740.34
712.783	689.97
712.975	732.4
713.166	668.65
713.358	694.23
713.55	751.19
713.741	746.54
713.933	728.52
714.125	709.34
714.316	715.15
714.508	759.13
714.7	758.55
714.891	769.6
715.083	821.52
715.274	749.45
715.466	782.58
715.657	805.63
715.849	727.17
716.04	776.38
716.232	704.88
716.423	790.71
716.615	750.42
716.806	726.39
716.998	732.01
717.189	691.32
717.381	631.65
717.572	639.79
717.763	675.24
717.955	704.11
718.146	652.38
718.337	628.55
718.528	623.51
718.72	583.6
718.911	646.76
719.102	620.6
719.293	648.7
719.485	617.89
719.676	635.72
719.867	608.01
720.058	637.27
720.249	633.59
720.44	668.85
720.632	670.01
720.823	711.47
721.014	769.4
721.205	753.52
721.396	758.17
721.587	849.23
721.778	831.21
721.969	848.84
722.16	863.76
722.351	851.16
722.542	948.04
722.733	942.03
722.924	872.86
723.115	950.56
723.305	934.48
723.496	944.74
723.687	871.7
723.878	876.93
724.069	898.24
724.26	916.46
724.45	871.7
724.641	866.86
724.832	882.94
725.023	901.73
725.213	861.63
725.404	847.68
725.595	888.75
725.785	885.07
725.976	912.39
726.167	902.51
726.357	921.3
726.548	972.45
726.739	923.04
726.929	974.19
727.12	1009.84
727.31	992.21
727.501	984.46
727.691	980.97
727.882	963.92
728.072	1023.6
728.263	1009.46
728.453	1030.57
728.644	1050.72
728.834	1022.24
729.024	1008.87
729.215	1037.55
729.405	999.96
729.596	1091.99
729.786	1115.82
729.976	1077.46
730.167	1095.87
730.357	1064.67
730.547	1078.24
730.737	1135.39
730.928	1130.35
731.118	1172.78
731.308	1139.07
731.498	1116.6
731.688	1196.03
731.879	1180.53
732.069	1222.58
732.259	1238.08
732.449	1252.61
732.639	1270.24
732.829	1293.1
733.019	1332.63
733.209	1360.91
733.399	1333.79
733.589	1363.43
733.779	1375.44
733.969	1350.84
734.159	1419.04
734.349	1458.95
734.539	1494.99
734.729	1479.87
734.919	1493.05
735.109	1503.7
735.299	1462.05
735.488	1517.65
735.678	1537.03
735.868	1510.87
736.058	1513.97
736.248	1480.07
736.437	1462.63
736.627	1470.57
736.817	1553.5
737.007	1563.96
737.196	1578.1
737.386	1548.46
737.576	1551.95
737.765	1593.22
737.955	1562.6
738.144	1637.2
738.334	1596.7
738.524	1584.69
738.713	1618.98
738.903	1633.32
739.092	1656.57
739.282	1652.5
739.471	1606.58
739.661	1625.77
739.85	1634.48
740.04	1700.75
740.229	1694.74
740.419	1675.95
740.608	1675.75
740.797	1682.15
740.987	1750.15
741.176	1755.58
741.365	1720.31
741.555	1685.25
741.744	1763.13
741.933	1758.48
742.123	1790.06
742.312	1736.39
742.501	1785.22
742.69	1773.98
742.88	1722.83
743.069	1834.24
743.258	1766.43
743.447	1808.28
743.636	1814.67
743.825	1764.49
744.014	1789.68
744.204	1844.12
744.393	1759.64
744.582	1842.96
744.771	1901.66
744.96	1813.7
745.149	1855.16
745.338	1805.37
745.527	1854.39
745.716	1837.34
745.905	1810.6
746.094	1868.34
746.283	1864.07
746.471	1870.47
746.66	1887.91
746.849	1891.97
747.038	1888.68
747.227	1852.06
747.416	1914.45
747.604	1831.14
747.793	1852.84
747.982	1876.67
748.171	1876.67
748.359	1903.02
748.548	1897.4
748.737	1887.71
748.926	1833.46
749.114	1785.03
749.303	1850.51
749.491	1855.94
749.68	1792.97
749.869	1908.83
750.057	1857.1
750.246	1832.11
750.434	1866.21
750.623	1855.55
750.811	1817.19
751	1901.86
751.188	1853.42
751.377	1874.92
751.565	1848.38
751.754	1819.9
751.942	1834.82
752.131	1884.61
752.319	1830.75
752.507	1826.49
752.696	1858.26
752.884	1874.92
753.072	1864.07
753.261	1838.31
753.449	1861.17
753.637	1818.16
753.825	1954.75
754.014	1852.45
754.202	1874.73
754.39	1895.66
754.578	1857.29
754.766	1820.09
754.955	1817.58
755.143	1922.39
755.331	1794.33
755.519	1821.64
755.707	1832.88
755.895	1840.05
756.083	1823.39
756.271	1780.76
756.459	1798.39
756.647	1881.51
756.835	1831.33
757.023	1799.56
757.211	1798.01
757.399	1814.09
757.587	1824.55
757.775	1736.59
757.963	1784.25
758.151	1807.11
758.339	1765.07
758.526	1745.11
758.714	1788.13
758.902	1693.77
759.09	1683.5
759.278	1583.33
759.465	1480.07
759.653	1247.96
759.841	1168.72
760.028	950.17
760.216	839.54
760.404	818.61
760.591	627.19
760.779	525.47
760.967	466.77
761.154	359.63
761.342	404.77
761.529	443.52
761.717	448.17
761.905	419.5
762.092	477.04
762.28	415.04
762.467	440.42
762.655	391.01
762.842	433.25
763.029	426.28
763.217	435.96
763.404	424.92
763.592	428.41
763.779	393.34
763.966	440.61
764.154	463.67
764.341	492.93
764.528	469.48
764.716	540.01
764.903	560.93
765.09	599.49
765.277	623.7
765.465	736.08
765.652	759.13
765.839	741.5
766.026	838.96
766.213	863.56
766.4	921.3
766.588	1035.8
766.775	1054.4
766.962	1114.47
767.149	1106.14
767.336	1211.73
767.523	1173.56
767.71	1254.93
767.897	1324.88
768.084	1395.98
768.271	1395.01
768.458	1419.04
768.645	1467.67
768.832	1460.5
769.019	1431.63
769.206	1471.93
769.392	1544.59
769.579	1628.28
769.766	1551.56
769.953	1548.07
770.14	1601.74
770.327	1542.84
770.513	1596.9
770.7	1666.26
770.887	1573.84
771.073	1621.12
771.26	1580.43
771.447	1584.5
771.634	1577.72
771.82	1655.02
772.007	1568.61
772.193	1605.81
772.38	1633.9
772.567	1584.5
772.753	1612.4
772.94	1659.28
773.126	1645.53
773.313	1626.35
773.499	1658.51
773.686	1610.27
773.872	1610.65
774.059	1632.16
774.245	1586.63
774.432	1613.75
774.618	1546.14
774.804	1644.37
774.991	1527.92
775.177	1628.09
775.363	1630.42
775.55	1626.93
775.736	1576.36
775.922	1561.05
776.109	1591.86
776.295	1564.93
776.481	1579.65
776.667	1639.52
776.853	1574.03
777.04	1548.65
777.226	1571.9
777.412	1629.83
777.598	1572.1
777.784	1539.16
777.97	1561.44
778.156	1594.96
778.342	1546.52
778.528	1548.46
778.715	1473.67
778.901	1510.1
779.087	1578.1
779.272	1516.88
779.458	1500.8
779.644	1544.39
779.83	1532.38
780.016	1602.32
780.202	1517.65
780.388	1521.53
780.574	1477.16
780.76	1484.91
780.946	1526.57
781.131	1496.92
781.317	1501.77
781.503	1497.31
781.689	1502.93
781.874	1608.33
782.06	1502.15
782.246	1474.84
782.432	1462.82
782.617	1531.99
782.803	1562.41
782.989	1430.66
783.174	1469.22
783.36	1416.91
783.545	1454.3
783.731	1460.11
783.916	1387.65
784.102	1479.1
784.288	1400.44
784.473	1438.8
784.659	1447.32
784.844	1498.67
785.029	1424.46
785.215	1421.75
785.4	1382.81
785.586	1455.66
785.771	1406.44
785.956	1425.62
786.142	1430.86
786.327	1389.01
786.512	1395.98
786.698	1401.21
786.883	1376.8
787.068	1388.04
787.254	1396.56
787.439	1383.58
787.624	1384.55
787.809	1345.61
787.994	1370.41
788.18	1407.41
788.365	1325.65
788.55	1359.36
788.735	1327.59
788.92	1341.34
789.105	1346.58
789.29	1377.96
789.475	1306.66
789.66	1324.68
789.845	1340.57
790.03	1270.05
790.215	1362.85
790.4	1340.76
790.585	1383.19
790.77	1297.56
790.955	1260.75
791.14	1321.97
791.325	1353.55
791.51	1208.05
791.695	1284.19
791.879	1262.68
792.064	1255.51
792.249	1349.29
792.434	1312.28
792.618	1293.68
792.803	1328.36
792.988	1289.81
793.173	1288.84
793.357	1327.98
793.542	1254.16
793.727	1292.52
793.911	1313.44
794.096	1265.4
794.281	1336.31
794.465	1366.14
794.65	1314.03
794.834	1283.61
795.019	1380.87
795.203	1322.55
795.388	1330.11
795.572	1354.33
795.757	1313.83
795.941	1340.18
796.126	1304.14
796.31	1252.8
796.494	1285.74
796.679	1278.18
796.863	1268.69
797.048	1356.26
797.232	1335.14
797.416	1314.03
797.601	1259.78
797.785	1383.58
797.969	1332.43
798.153	1260.94
798.338	1304.73
798.522	1349.68
798.706	1320.03
798.89	1314.03
799.074	1452.75
799.258	1359.36
799.443	1304.34
799.627	1320.42
799.811	1382.03
799.995	1300.08
800.179	1303.76
800.363	1309.96
800.547	1320.81
800.731	1344.64
800.915	1296.98
801.099	1307.44
801.283	1287.29
801.467	1327.2
801.651	1290
801.835	1362.85
802.019	1307.63
802.202	1322.94
802.386	1279.35
802.57	1268.11
802.754	1295.23
802.938	1284.96
803.121	1280.31
803.305	1346.77
803.489	1293.88
803.673	1326.23
803.856	1323.52
804.04	1309.76
804.224	1339.21
804.407	1294.26
804.591	1273.53
804.775	1314.61
804.958	1325.46
805.142	1387.07
805.326	1313.64
805.509	1313.64
805.693	1341.93
805.876	1364.01
806.06	1307.63
806.243	1318.29
806.427	1363.82
806.61	1356.26
806.794	1311.51
806.977	1366.53
807.16	1337.86
807.344	1330.3
807.527	1321.78
807.71	1318.09
807.894	1324.49
808.077	1381.06
808.26	1297.56
808.444	1303.37
808.627	1322.74
808.81	1278.96
808.993	1285.55
809.177	1267.91
809.36	1297.94
809.543	1284.38
809.726	1213.47
809.909	1219.09
810.092	1215.02
810.276	1205.14
810.459	1238.66
810.642	1196.03
810.825	1202.23
811.008	1206.69
811.191	1141.78
811.374	1184.8
811.557	1185.18
811.74	1234.2
811.923	1146.63
812.106	1148.95
812.289	1107.1
812.472	1132.87
812.654	1154.96
812.837	1103.62
813.02	1074.55
813.203	1084.05
813.386	997.83
813.569	1024.18
813.751	986.01
813.934	1053.82
814.117	985.82
814.3	963.15
814.482	939.13
814.665	947.07
814.848	899.6
815.03	861.63
815.213	911.03
815.396	849.03
815.578	892.24
815.761	839.15
815.943	921.69
816.126	825.2
816.309	835.86
816.491	772.5
816.674	739.57
816.856	798.66
817.039	777.15
817.221	831.6
817.403	806.02
817.586	810.67
817.768	804.08
817.951	768.63
818.133	746.73
818.315	787.03
818.498	792.85
818.68	842.83
818.862	806.02
819.045	857.56
819.227	846.32
819.409	781.03
819.591	828.5
819.774	824.04
819.956	774.05
820.138	875.77
820.32	810.09
820.502	831.6
820.684	922.27
820.866	902.89
821.048	931.57
821.231	955.4
821.413	930.79
821.595	919.75
821.777	894.76
821.959	909.29
822.141	966.44
822.323	878.48
822.505	846.13
822.686	819.2
822.868	770.76
823.05	702.95
823.232	724.65
823.414	662.07
823.596	756.03
823.778	693.07
823.96	718.83
824.141	760.3
824.323	757.2
824.505	772.11
824.687	803.7
824.868	800.79
825.05	885.84
825.232	906.19
825.413	963.73
825.595	915.1
825.777	874.03
825.958	863.18
826.14	875.58
826.321	896.69
826.503	866.47
826.685	899.79
826.866	932.73
827.048	934.86
827.229	873.44
827.411	866.66
827.592	854.85
827.773	850.39
827.955	821.71
828.136	828.5
828.318	790.33
828.499	814.74
828.68	758.36
828.862	839.54
829.043	855.81
829.224	817.06
829.406	813.58
829.587	800.01
829.768	763.4
829.949	825.98
830.131	812.22
830.312	840.7
830.493	798.85
830.674	810.86
830.855	780.83
831.036	790.71
831.218	859.88
831.399	860.08
831.58	841.09
831.761	809.7
831.942	841.28
832.123	796.33
832.304	738.6
832.485	754.48
832.666	775.41
832.847	807.57
833.028	794.01
833.209	805.05
833.389	781.61
833.57	754.48
833.751	798.46
833.932	842.45
834.113	811.64
834.294	798.08
834.475	833.92
834.655	841.09
834.836	859.69
835.017	831.21
835.198	768.24
835.378	832.56
835.559	841.67
835.74	794.59
835.92	781.03
836.101	769.4
836.281	856.98
836.462	841.67
836.643	863.37
836.823	826.17
837.004	854.46
837.184	862.79
837.365	882.74
837.545	858.72
837.726	816.87
837.906	876.93
838.087	840.31
838.267	828.88
838.448	806.02
838.628	851.75
838.808	828.11
838.989	912.19
839.169	833.92
839.349	875.38
839.53	884.68
839.71	870.34
839.89	830.05
840.07	899.6
840.251	827.33
840.431	874.8
840.611	858.91
840.791	823.26
840.971	840.12
841.151	826.75
841.332	804.08
841.512	852.91
841.692	803.11
841.872	878.87
842.052	852.71
842.232	840.9
842.412	783.93
842.592	848.45
842.772	808.35
842.952	844
843.132	813
843.312	808.35
843.492	809.9
843.672	826.95
843.851	776.96
844.031	805.44
844.211	831.21
844.391	809.31
844.571	825.01
844.751	831.4
844.93	826.75
845.11	822.68
845.29	837.6
845.47	850.97
845.649	822.68
845.829	852.13
846.009	794.59
846.188	840.31
846.368	788.97
846.547	807.57
846.727	850.58
846.907	765.72
847.086	808.15
847.266	859.88
847.445	804.08
847.625	759.91
847.804	768.05
847.984	797.3
848.163	813.38
848.343	789.16
848.522	819.78
848.701	815.9
848.881	818.81
849.06	808.73
849.239	810.28
849.419	816.29
849.598	755.65
849.777	759.33
849.957	764.75
850.136	722.52
850.315	699.46
850.494	743.05
850.674	698.1
850.853	756.42
851.032	755.84
851.211	793.62
851.39	772.31
851.569	698.1
851.748	704.11
851.927	746.15
852.107	733.17
852.286	682.22
852.465	709.53
852.644	772.11
852.823	729.88
853.002	742.67
853.181	712.05
853.359	742.28
853.538	684.35
853.717	786.45
853.896	690.93
854.075	660.13
854.254	665.94
854.433	617.7
854.611	659.55
854.79	636.69
854.969	658.77
855.148	684.15
855.327	654.51
855.505	668.85
855.684	640.95
855.863	697.72
856.041	662.45
856.22	667.88
856.399	684.15
856.577	715.15
856.756	711.47
856.934	793.81
857.113	773.08
857.291	710.7
857.47	664
857.648	695.2
857.827	707.4
858.005	739.95
858.184	700.62
858.362	771.15
858.541	717.87
858.719	693.45
858.898	689.77
859.076	651.99
859.254	746.35
859.433	695.2
859.611	675.63
859.789	660.13
859.967	719.03
860.146	784.51
860.324	637.46
860.502	670.01
860.68	657.42
860.859	655.67
861.037	686.87
861.215	686.67
861.393	682.02
861.571	671.95
861.749	659.35
861.927	698.68
862.105	703.33
862.283	656.25
862.461	649.86
862.639	648.12
862.817	661.87
862.995	654.12
863.173	635.72
863.351	656.84
863.529	667.69
863.707	711.28
863.885	686.48
864.063	614.6
864.241	640.75
864.418	709.73
864.596	642.11
864.774	624.29
864.952	636.88
865.129	667.1
865.307	628.55
865.485	605.1
865.663	671.75
865.84	610.72
866.018	651.41
866.196	516.95
866.373	585.54
866.551	562.09
866.728	512.11
866.906	553.76
867.084	577.4
867.261	639.4
867.439	618.86
867.616	627
867.794	603.17
867.971	610.34
868.149	597.16
868.326	671.17
868.503	642.5
868.681	597.74
868.858	613.44
869.035	596.19
869.213	641.34
869.39	566.55
869.567	650.25
869.745	570.81
869.922	610.92
870.099	604.72
870.276	613.44
870.454	608.59
870.631	593.48
870.808	581.66
870.985	627.58
871.162	651.22
871.339	633.59
871.517	546.01
871.694	582.63
871.871	594.06
872.048	586.31
872.225	586.51
872.402	590.57
872.579	561.71
872.756	593.67
872.933	539.23
873.11	569.46
873.287	617.7
873.463	556.28
873.64	541.75
873.817	598.9
873.994	582.24
874.171	544.85
874.348	578.17
874.524	525.09
874.701	573.14
874.878	500.68
875.055	572.75
875.231	593.29
875.408	590.38
875.585	498.35
875.762	585.15
875.938	539.81
876.115	537.1
876.291	552.99
876.468	541.94
876.645	515.59
876.821	531.48
876.998	532.45
877.174	574.3
877.351	534.39
877.527	503.58
877.704	543.49
877.88	538.26
878.057	529.74
878.233	587.67
878.409	520.63
878.586	554.54
878.762	509.2
878.938	507.26
879.115	482.46
879.291	517.14
879.467	471.23
879.644	494.09
879.82	562.09
879.996	464.64
880.172	447.98
880.349	527.22
880.525	519.86
880.701	507.84
880.877	490.02
881.053	494.67
881.229	520.24
881.405	556.67
881.581	478.01
881.757	492.93
881.933	509.39
882.109	567.32
882.285	503.97
882.461	441
882.637	503.58
882.813	473.36
882.989	503
883.165	547.76
883.341	491.76
883.517	549.89
883.693	506.1
883.869	525.86
884.044	501.84
884.22	508.81
884.396	523.73
884.572	532.64
884.747	527.8
884.923	535.16
885.099	552.21
885.275	517.72
885.45	483.63
885.626	478.39
885.801	475.1
885.977	512.88
886.153	447.01
886.328	521.02
886.504	481.88
886.679	522.76
886.855	448.36
887.03	509.97
887.206	556.28
887.381	491.76
887.557	527.99
887.732	523.15
887.908	530.9
888.083	547.17
888.258	526.06
888.434	471.42
888.609	477.81
888.784	506.29
888.96	499.71
889.135	483.63
889.31	459.21
889.485	507.84
889.661	484.01
889.836	534.19
890.011	519.66
890.186	481.88
890.361	487.89
890.537	524.51
890.712	505.52
890.887	498.16
891.062	503.97
891.237	518.89
891.412	470.26
891.587	524.89
891.762	558.02
891.937	528.77
892.112	460.18
892.287	486.53
892.462	483.63
892.637	451.08
892.812	430.54
892.987	441.39
893.161	442.74
893.336	422.01
893.511	444.88
893.686	449.33
893.861	447.39
894.035	441.58
894.21	459.79
894.385	418.33
894.56	441
894.734	406.32
894.909	428.6
895.084	417.56
895.258	393.34
895.433	415.04
895.608	400.31
895.782	346.06
895.957	377.45
896.131	385.01
896.306	321.85
896.48	345.48
896.655	393.92
896.829	317.39
897.004	302.86
897.178	328.24
897.353	303.83
897.527	364.28
897.701	334.63
897.876	297.05
898.05	337.93
898.224	350.71
898.399	366.41
898.573	354.98
898.747	273.8
898.921	326.88
899.096	269.92
899.27	261.98
899.444	273.41
899.618	286.39
899.792	293.75
899.967	265.66
900.141	309.06
900.315	253.65
900.489	266.63
900.663	307.51
900.837	298.79
901.011	259.46
901.185	344.13
901.359	288.52
901.533	294.33
901.707	310.61
901.881	306.54
902.055	234.66
902.229	290.27
902.403	316.23
902.576	276.51
902.75	300.34
902.924	381.91
903.098	299.37
903.272	323.2
903.446	365.63
903.619	339.48
903.793	365.05
903.967	299.37
904.14	406.71
904.314	371.45
904.488	372.8
904.661	381.13
904.835	351.68
905.009	388.88
905.182	437.32
905.356	397.6
905.529	377.65
905.703	318.75
905.876	352.26
906.05	332.7
906.223	305.77
906.397	265.47
906.57	278.25
906.744	281.16
906.917	271.67
907.09	284.45
907.264	304.22
907.437	283.1
907.61	232.53
907.784	263.92
907.957	278.06
908.13	250.55
908.304	329.21
908.477	268.18
908.65	266.24
908.823	204.05
908.996	285.62
909.17	249.77
909.343	244.15
909.516	261.98
909.689	270.89
909.862	205.79
910.035	264.88
910.208	241.44
910.381	238.92
910.554	315.26
910.727	273.22
910.9	241.83
911.073	205.99
911.246	307.51
911.419	268.57
911.592	281.74
911.765	261.2
911.938	229.24
912.11	247.45
912.283	264.5
912.456	288.52
912.629	275.15
912.802	220.9
912.974	219.16
913.147	192.04
913.32	181.77
913.493	183.12
913.665	198.04
913.838	215.29
914.01	195.72
914.183	202.5
914.356	204.24
914.528	213.54
914.701	285.42
914.873	249.97
915.046	205.99
915.218	183.32
915.391	164.91
915.563	153.67
915.736	233.5
915.908	260.23
916.081	223.04
916.253	183.32
916.425	203.27
916.598	219.16
916.77	212.38
916.942	195.52
917.115	155.81
917.287	228.65
917.459	190.87
917.632	162.59
917.804	140.5
917.976	182.35
918.148	208.7
918.32	206.95
918.493	219.35
918.665	249.58
918.837	207.15
919.009	253.26
919.181	240.09
919.353	249.19
919.525	203.66
919.697	223.23
919.869	236.02
920.041	243.57
920.213	298.79
920.385	254.62
920.557	209.28
920.729	233.69
920.901	216.84
921.073	206.57
921.244	211.22
921.416	270.7
921.588	219.55
921.76	215.48
921.932	303.05
922.103	211.41
922.275	224.59
922.447	243.96
922.619	153.67
922.79	231.56
922.962	195.91
923.134	243.57
923.305	170.14
923.477	176.92
923.648	188.35
923.82	209.28
923.991	176.73
924.163	165.1
924.335	168.79
924.506	175.57
924.677	232.72
924.849	186.03
925.02	197.27
925.192	225.94
925.363	213.74
925.535	209.28
925.706	180.41
925.877	208.12
926.049	183.12
926.22	209.47
926.391	220.9
926.562	213.15
926.734	163.94
926.905	246.87
927.076	138.17
927.247	177.5
927.419	147.09
927.59	142.24
927.761	156.77
927.932	148.83
928.103	165.3
928.274	144.18
928.445	131.59
928.616	145.92
928.787	122.09
928.958	170.72
929.129	158.32
929.3	154.26
929.471	106.4
929.642	89.74
929.813	40.53
929.984	141.08
930.155	75.59
930.326	133.91
930.496	111.44
930.667	27.93
930.838	93.22
931.009	67.07
931.18	85.86
931.35	71.91
931.521	104.46
931.692	47.5
931.863	7.59
932.033	48.28
932.204	80.05
932.374	70.56
932.545	20.57
932.716	96.91
932.886	90.32
933.057	-1.91
933.227	35.29
933.398	113.18
933.568	7.59
933.739	6.43
933.909	21.93
934.08	56.61
934.25	-17.99
934.421	-9.27
934.591	24.83
934.761	8.36
934.932	-21.47
935.102	13.98
935.272	16.89
935.443	26.77
935.613	-3.84
935.783	40.72
935.953	-16.24
936.123	164.14
936.294	-8.3
936.464	-4.42
936.634	30.26
936.804	7.78
936.974	-6.56
937.144	26.38
937.314	20.38
937.484	-16.82
937.655	-9.85
937.825	52.15
937.995	1.58
938.165	73.07
938.334	16.31
938.504	22.12
938.674	3.33
938.844	-10.04
939.014	51.57
939.184	37.43
939.354	82.96
939.524	52.93
939.694	42.66
939.863	12.63
940.033	92.45
940.203	107.95
940.373	66.1
940.542	65.71
940.712	7.59
940.882	81.79
941.051	97.49
941.221	53.7
941.391	74.24
941.56	38.01
941.73	-9.07
941.899	128.29
942.069	52.93
942.238	40.33
942.408	24.83
942.577	89.54
942.747	40.72
942.916	1.97
943.086	14.37
943.255	74.24
943.425	38.98
943.594	40.91
943.763	-41.43
943.933	-0.16
944.102	-9.27
944.271	25.22
944.441	44.21
944.61	19.21
944.779	35.29
944.948	90.71
945.117	11.08
945.287	33.94
945.456	-29.42
945.625	-6.75
945.794	60.29
945.963	21.54
946.132	69.78
946.301	16.89
946.47	70.17
946.639	-22.05
946.808	24.44
946.977	26.96
947.146	74.24
947.315	14.18
947.484	59.13
947.653	38.01
947.822	15.34
947.991	14.37
948.16	107.95
948.329	66.88
948.498	24.44
948.666	31.42
948.835	49.63
949.004	25.03
949.173	15.14
949.341	33.36
949.51	55.44
949.679	79.27
949.847	47.89
950.016	101.17
950.185	72.69
950.353	-1.13
950.522	33.94
950.69	48.66
950.859	-7.14
951.028	58.74
951.196	51.57
951.365	4.1
951.533	15.14
951.701	76.17
951.87	44.4
952.038	-22.05
952.207	37.62
952.375	85.09
952.543	6.04
952.712	49.44
952.88	8.94
953.048	83.73
953.217	38.2
953.385	10.69
953.553	65.33
953.721	12.43
953.89	48.47
954.058	-11.01
954.226	9.91
954.394	27.54
954.562	14.18
954.73	8.17
954.898	15.73
955.067	20.18
955.235	39.36
955.403	66.1
955.571	81.41
955.739	51.18
955.907	12.63
956.075	25.22
956.243	22.7
956.41	57.19
956.578	-9.07
956.746	-20.31
956.914	20.96
957.082	61.84
957.25	48.66
957.418	21.54
957.585	27.35
957.753	59.32
957.921	-14.89
958.089	46.53
958.256	36.07
958.424	47.89
958.592	52.54
958.759	13.01
958.927	39.75
959.095	16.31
959.262	38.78
959.43	47.89
959.597	-2.68
959.765	32.97
959.932	15.34
960.1	48.86
960.267	30.84
960.435	58.54
960.602	54.09
960.77	32.97
960.937	-11.59
961.104	40.91
961.272	-0.74
961.439	11.85
961.606	58.93
961.774	49.44
961.941	19.02
962.108	55.06
962.275	80.82
962.443	65.33
962.61	13.59
962.777	88.96
962.944	51.38
963.111	27.93
963.278	78.31
963.446	50.79
963.613	30.26
963.78	39.94
963.947	69.98
964.114	42.46
964.281	128.87
964.448	56.8
964.615	41.88
964.782	50.41
964.949	77.14
965.116	46.34
965.282	82.37
965.449	47.5
965.616	14.18
965.783	63.58
965.95	72.11
966.117	-5.97
966.283	38.78
966.45	65.91
966.617	23.67
966.784	93.81
966.95	76.95
967.117	83.92
967.284	26.38
967.45	15.14
967.617	97.87
967.784	59.13
967.95	100.59
968.117	49.24
968.283	75.4
968.45	140.89
968.616	41.69
968.783	85.09
968.949	36.26
969.116	104.85
969.282	56.99
969.449	48.28
969.615	35.1
969.781	18.24
969.948	21.34
970.114	-12.76
970.28	74.62
970.447	70.17
970.613	85.86
970.779	37.43
970.945	75.59
971.112	47.89
971.278	4.68
971.444	33.55
971.61	101.36
971.776	58.74
971.942	70.17
972.108	55.44
972.275	46.34
972.441	63.58
972.607	135.27
972.773	44.21
972.939	51.76
973.105	46.92
973.271	41.49
973.437	37.23
973.602	46.34
973.768	70.75
973.934	62.61
974.1	67.07
974.266	11.85
974.432	65.52
974.598	58.16
974.763	52.34
974.929	22.31
975.095	103.3
975.261	19.41
975.426	44.01
975.592	32
975.758	114.15
975.923	1.19
976.089	44.21
976.255	56.99
976.42	64.16
976.586	71.14
976.751	62.42
976.917	99.23
977.082	64.94
977.248	5.26
977.413	20.76
977.579	35.1
977.744	71.91
977.91	-3.07
978.075	21.54
978.24	70.94
978.406	52.54
978.571	40.91
978.736	24.64
978.902	86.06
979.067	21.34
979.232	17.86
979.397	57.58
979.563	87.41
979.728	36.65
979.893	34.71
980.058	30.06
980.223	46.73
980.388	63.58
980.554	42.85
980.719	25.99
980.884	67.65
981.049	59.9
981.214	39.94
981.379	65.91
981.544	35.1
981.709	36.07
981.874	35.88
982.039	28.9
982.204	87.61
982.368	53.31
982.533	-3.65
982.698	67.26
982.863	46.73
983.028	23.48
983.193	73.85
983.357	60.29
983.522	26.77
983.687	26.77
983.852	44.21
984.016	25.03
984.181	71.72
984.346	66.49
984.51	59.9
984.675	36.46
984.839	57.38
985.004	60.29
985.168	84.89
985.333	62.81
985.498	41.69
985.662	61.64
985.827	43.43
985.991	45.37
986.155	15.92
986.32	55.64
986.484	77.53
986.649	51.57
986.813	1.19
986.977	48.47
987.142	78.5
987.306	16.11
987.47	40.91
987.634	43.63
987.799	62.81
987.963	49.44
988.127	61.26
988.291	105.82
988.455	69.59
988.62	37.23
988.784	74.43
988.948	70.94
989.112	15.53
989.276	48.47
989.44	26.38
989.604	9.91
989.768	28.32
989.932	107.95
990.096	14.76
990.26	29.48
990.424	-10.62
990.588	20.18
990.752	84.7
990.915	81.21
991.079	33.94
991.243	25.61
991.407	100.97
991.571	49.63
991.734	42.46
991.898	58.93
992.062	115.89
992.226	28.32
992.389	13.21
992.553	16.5
992.717	-1.91
992.88	22.89
993.044	37.62
993.207	37.04
993.371	46.14
993.535	76.17
993.698	31.61
993.862	77.53
994.025	65.91
994.189	62.03
994.352	32
994.515	41.49
994.679	70.75
994.842	54.48
995.006	67.46
995.169	35.49
995.332	21.93
995.496	58.74
995.659	-29.03
995.822	6.81
995.985	52.73
996.149	66.1
996.312	16.69
996.475	108.14
996.638	22.31
996.801	78.5
996.964	88.77
997.128	30.84
997.291	46.92
997.454	32.97
997.617	-6.36
997.78	83.54
997.943	45.95
998.106	42.66
998.269	19.6
998.432	23.67
998.595	18.24
998.758	-7.72
998.92	6.62
999.083	-16.05
999.246	1.39
999.409	22.12
999.572	-9.46
999.735	24.64
999.897	11.08
1000.06	28.71
1000.223	1.19
1000.386	52.54
1000.548	64.36
1000.711	56.22
1000.874	57.19
1001.036	19.02
1001.199	75.21
1001.361	16.11
1001.524	38.59
1001.687	71.53
1001.849	7.01
1002.012	23.09
1002.174	60.09
1002.337	55.25
1002.499	32.97
1002.661	75.01
1002.824	13.4
1002.986	7.78
1003.149	20.18
1003.311	12.43
1003.473	76.17
1003.636	28.51
1003.798	66.1
1003.96	34.13
1004.123	31.42
1004.285	-1.91
1004.447	58.54
1004.609	38.78
1004.771	87.99
1004.933	-21.28
1005.096	9.14
1005.258	2.55
1005.42	-16.82
1005.582	58.16
1005.744	43.63
1005.906	-12.17
1006.068	30.84
1006.23	-6.36
1006.392	0.42
1006.554	9.72
1006.716	70.36
1006.878	59.13
1007.04	-12.17
1007.202	30.84
1007.363	31.23
1007.525	24.25
1007.687	17.66
1007.849	87.41
1008.011	-20.5
1008.172	17.86
1008.334	21.73
1008.496	38.39
1008.658	-7.52
1008.819	-13.72
1008.981	-35.04
1009.143	8.36
1009.304	-10.82
1009.466	41.11
1009.627	85.09
1009.789	110.47
1009.95	23.09
1010.112	22.7
1010.273	50.79
1010.435	10.69
1010.596	-13.34
1010.758	9.33
1010.919	3.91
1011.081	-15.08
1011.242	19.02
1011.403	46.53
1011.565	36.65
1011.726	42.46
1011.887	-4.04
1012.049	-10.43
1012.21	45.18
1012.371	75.01
1012.532	-30.39
1012.693	-0.74
1012.855	3.71
1013.016	30.84
1013.177	46.92
1013.338	24.83
1013.499	83.54
1013.66	51.18
1013.821	36.84
1013.982	58.16
1014.143	24.83
1014.304	18.24
1014.465	40.91
1014.626	50.99
1014.787	32.97
1014.948	101.17
1015.109	-15.27
1015.27	59.9
1015.431	16.89
1015.592	-20.31
1015.752	87.22
1015.913	11.27
1016.074	27.74
1016.235	28.13
1016.395	18.24
1016.556	-1.91
1016.717	9.72
1016.877	50.99
1017.038	4.29
1017.199	34.91
1017.359	20.57
1017.52	26.19
1017.681	0.81
1017.841	14.76
1018.002	44.4
1018.162	-1.32
1018.323	83.34
1018.483	23.48
1018.644	-6.94
1018.804	-2.87
1018.964	-8.3
1019.125	-12.76
1019.285	22.7
1019.446	-1.71
1019.606	0.03
1019.766	-14.89
1019.926	20.18
1020.087	21.15
1020.247	-9.07
1020.407	12.24
1020.567	48.08
1020.728	15.14
1020.888	7.2
1021.048	-17.6
1021.208	-10.43
1021.368	26.38
1021.528	51.57
1021.688	32.39
1021.848	58.16
1022.008	16.69
1022.168	41.3
1022.328	36.26
1022.488	26.77
1022.648	11.66
1022.808	28.32
1022.968	36.84
1023.128	-6.56
1023.288	5.07
1023.448	14.18
1023.608	44.79
1023.767	15.92
1023.927	-16.44
1024.087	-7.52
1024.247	-32.32
1024.406	-6.17
1024.566	10.3
1024.726	-5.01
1024.885	0.61
1025.045	31.23
1025.205	8.36
1025.364	12.04
1025.524	16.69
1025.683	13.59
1025.843	25.41
1026.003	13.98
1026.162	81.6
1026.321	49.05
1026.481	18.63
1026.64	-18.57
1026.8	1.19
1026.959	36.26
1027.119	30.45
1027.278	-1.91
1027.437	7.39
1027.597	31.42
1027.756	29.68
1027.915	6.43
1028.074	30.64
1028.234	-18.76
1028.393	25.41
1028.552	17.08
1028.711	-56.35
1028.87	29.68
1029.03	-22.64
1029.189	18.83
1029.348	-35.81
1029.507	-6.94
1029.666	-5.2
1029.825	-27.09
1029.984	-9.66
1030.143	7.98
1030.302	-8.69
1030.461	-10.62
1030.62	-2.87
1030.779	39.56
1030.938	-2.1
1031.097	-4.81
1031.255	37.04
1031.414	49.44
1031.573	15.14
1031.732	-33.29
1031.891	24.83
1032.049	41.11
1032.208	38.39
1032.367	-16.24
1032.525	-19.15
1032.684	7.01
1032.843	28.32
1033.001	-42.4
1033.16	151.54
1033.319	45.56
1033.477	6.23
1033.636	-6.17
1033.794	-12.17
1033.953	30.45
1034.111	41.88
1034.27	-10.24
1034.428	38.39
1034.587	-17.4
1034.745	36.26
1034.903	14.37
1035.062	56.03
1035.22	-25.74
1035.378	40.14
1035.537	-1.52
1035.695	51.57
1035.853	3.91
1036.011	66.1
1036.17	39.17
1036.328	-41.04
1036.486	11.27
1036.644	-0.36
1036.802	-49.76
1036.96	6.04
1037.119	-25.15
1037.277	-18.95
1037.435	-31.55
1037.593	-6.56
1037.751	27.16
1037.909	52.15
1038.067	52.15
