Data from oakcork_FLMT105791__187__17-32-00-046.txt Node

Date: Mon Mar 20 17:32:00 GMT 2023
User: antho
Spectrometer: FLMT10579
Trigger mode: 0
Integration Time (sec): 1.000000E-1
Scans to average: 10
Electric dark correction enabled: true
Nonlinearity correction enabled: false
Boxcar width: 0
XAxis mode: Wavelengths
Number of Pixels in Spectrum: 3648
>>>>>Begin Spectral Data<<<<<
345.248	-152.4
345.464	-152.4
345.681	-152.4
345.898	-179.52
346.114	-142.52
346.331	-40.61
346.548	8.99
346.764	17.13
346.981	0.27
347.197	-9.03
347.414	-4.76
347.631	-15.81
347.847	60.34
348.064	-6.12
348.28	26.62
348.497	-40.41
348.713	3.37
348.93	38.83
349.146	24.69
349.363	0.08
349.579	21.39
349.796	-2.83
350.012	-9.61
350.229	26.82
350.445	7.83
350.661	-14.84
350.878	0.66
351.094	15.19
351.311	8.61
351.527	-0.11
351.743	-17.36
351.96	31.08
352.176	50.84
352.392	28.37
352.609	31.27
352.825	11.71
353.041	19.07
353.257	1.82
353.474	-18.13
353.69	13.64
353.906	10.74
354.122	-20.84
354.339	48.71
354.555	23.14
354.771	-26.46
354.987	56.07
355.203	41.93
355.42	-3.79
355.636	-28.21
355.852	-17.94
356.068	-9.61
356.284	-29.56
356.5	69.64
356.716	30.5
356.932	-1.08
357.148	9.57
357.364	-14.64
357.58	40.19
357.796	41.35
358.012	32.44
358.228	28.17
358.444	-63.27
358.66	51.81
358.876	20.42
359.092	-11.54
359.308	16.55
359.524	30.31
359.74	5.31
359.956	-15.03
360.172	-15.81
360.388	53.17
360.604	-23.94
360.819	72.74
361.035	12.09
361.251	38.25
361.467	-13.87
361.683	56.27
361.898	15
362.114	7.06
362.33	6.67
362.546	25.46
362.762	-10.38
362.977	25.85
363.193	-31.11
363.409	41.74
363.624	-22.59
363.84	-1.47
364.056	7.25
364.271	20.23
364.487	2.79
364.703	-18.91
364.918	4.15
365.134	-3.41
365.35	-9.41
365.565	90.75
365.781	21.97
365.996	3.57
366.212	59.75
366.427	30.5
366.643	-8.64
366.858	3.76
367.074	-42.74
367.289	65.37
367.505	104.12
367.72	-9.61
367.936	-9.41
368.151	38.44
368.367	8.41
368.582	11.32
368.798	9.96
369.013	74.09
369.228	2.99
369.444	4.73
369.659	70.99
369.874	33.99
370.09	44.26
370.305	-50.68
370.52	0.08
370.736	49.68
370.951	15.39
371.166	66.15
371.381	68.67
371.597	32.24
371.812	-35.76
372.027	16.55
372.242	3.76
372.458	75.64
372.673	-15.23
372.888	11.71
373.103	41.93
373.318	108.58
373.533	37.67
373.749	22.56
373.964	-16.19
374.179	43.09
374.394	-1.66
374.609	80.87
374.824	-17.94
375.039	63.44
375.254	-18.13
375.469	63.05
375.684	10.54
375.899	55.1
376.114	23.14
376.329	22.56
376.544	36.7
376.759	66.73
376.974	-33.63
377.189	39.22
377.404	25.85
377.619	33.41
377.834	-30.73
378.049	-22.01
378.264	3.37
378.478	21.97
378.693	28.56
378.908	47.55
379.123	-11.93
379.338	41.54
379.553	12.48
379.767	7.25
379.982	36.12
380.197	33.21
380.412	35.34
380.626	44.06
380.841	79.71
381.056	48.71
381.271	77.58
381.485	5.89
381.7	-46.22
381.915	30.31
382.129	19.84
382.344	46
382.559	24.88
382.773	44.26
382.988	-24.33
383.202	27.79
383.417	0.86
383.632	83.59
383.846	31.86
384.061	37.67
384.275	18.68
384.49	33.02
384.704	21.97
384.919	23.33
385.133	10.93
385.348	50.07
385.562	-12.13
385.777	27.98
385.991	15.19
386.206	2.41
386.42	5.31
386.634	60.34
386.849	57.62
387.063	25.46
387.277	-13.29
387.492	18.87
387.706	10.16
387.92	-31.31
388.135	28.56
388.349	25.27
388.563	42.32
388.778	28.95
388.992	38.06
389.206	32.82
389.42	120.59
389.635	45.61
389.849	48.71
390.063	69.44
390.277	34.57
390.491	74.67
390.706	41.74
390.92	55.49
391.134	24.11
391.348	59.75
391.562	-26.66
391.776	2.21
391.99	-20.26
392.205	62.27
392.419	5.51
392.633	33.41
392.847	74.67
393.061	6.86
393.275	94.82
393.489	11.51
393.703	71.19
393.917	66.34
394.131	26.82
394.345	27.21
394.559	44.45
394.773	21.2
394.986	27.59
395.2	39.41
395.414	77.58
395.628	6.47
395.842	47.36
396.056	3.96
396.27	-33.05
396.484	16.36
396.697	39.61
396.911	81.84
397.125	28.37
397.339	60.92
397.553	54.91
397.766	75.25
397.98	69.05
398.194	43.67
398.408	28.95
398.621	50.84
398.835	65.57
399.049	61.3
399.262	77.19
399.476	114.39
399.69	52.59
399.903	100.25
400.117	27.21
400.331	47.36
400.544	16.74
400.758	138.61
400.971	47.16
401.185	64.21
401.398	20.04
401.612	86.49
401.826	77.77
402.039	42.9
402.253	31.47
402.466	58.4
402.68	17.71
402.893	92.11
403.106	62.85
403.32	49.87
403.533	72.54
403.747	47.36
403.96	57.62
404.174	91.34
404.387	15.19
404.6	72.15
404.814	99.86
405.027	62.08
405.24	62.85
405.454	33.02
405.667	81.07
405.88	12.48
406.094	39.41
406.307	79.9
406.52	80.87
406.733	9.96
406.947	2.21
407.16	75.45
407.373	77.77
407.586	37.67
407.799	-11.16
408.012	83.2
408.226	67.89
408.439	84.75
408.652	7.25
408.865	72.15
409.078	89.4
409.291	67.89
409.504	30.89
409.717	69.64
409.93	65.37
410.143	55.49
410.357	9.57
410.57	4.15
410.783	26.82
410.996	75.06
411.209	84.17
411.421	91.34
411.634	48.13
411.847	50.26
412.06	60.34
412.273	66.34
412.486	39.22
412.699	165.35
412.912	62.27
413.125	69.83
413.338	61.11
413.55	73.51
413.763	67.31
413.976	66.34
414.189	34.96
414.402	67.7
414.615	112.45
414.827	18.68
415.04	65.37
415.253	79.71
415.466	98.7
415.678	131.25
415.891	46.58
416.104	58.2
416.316	47.74
416.529	36.51
416.742	84.36
416.954	84.75
417.167	44.64
417.38	64.6
417.592	92.3
417.805	41.74
418.017	47.16
418.23	86.69
418.442	31.47
418.655	43.87
418.868	36.51
419.08	120.79
419.293	79.71
419.505	67.7
419.718	64.6
419.93	77.97
420.142	74.09
420.355	111.49
420.567	84.17
420.78	81.45
420.992	74.48
421.205	132.41
421.417	43.87
421.629	21.01
421.842	43.67
422.054	14.61
422.266	107.03
422.479	115.94
422.691	70.02
422.903	75.64
423.115	73.32
423.328	84.94
423.54	64.79
423.752	85.33
423.964	64.79
424.177	118.27
424.389	44.84
424.601	159.73
424.813	99.28
425.025	102.96
425.238	104.51
425.45	42.12
425.662	77.19
425.874	340.69
426.086	94.82
426.298	90.56
426.51	82.04
426.722	62.85
426.934	54.52
427.146	114.78
427.358	37.86
427.57	99.09
427.782	79.32
427.994	78.35
428.206	54.91
428.418	53.36
428.63	101.41
428.842	85.91
429.054	80.68
429.266	101.41
429.478	57.24
429.69	80.1
429.902	19.07
430.114	109.35
430.325	84.55
430.537	53.55
430.749	78.55
430.961	40.77
431.173	72.54
431.384	122.53
431.596	18.1
431.808	57.04
432.02	94.63
432.231	110.32
432.443	95.79
432.655	77.97
432.867	77
433.078	87.46
433.29	117.49
433.502	126.99
433.713	97.34
433.925	99.86
434.136	127.37
434.348	58.2
434.56	37.28
434.771	168.25
434.983	48.52
435.194	78.55
435.406	72.54
435.617	119.24
435.829	137.06
436.04	107.42
436.252	121.37
436.463	144.81
436.675	136.67
436.886	106.06
437.098	108.39
437.309	150.23
437.521	85.52
437.732	108.58
437.943	113.04
438.155	103.35
438.366	64.02
438.578	146.94
438.789	110.71
439	110.32
439.211	119.43
439.423	101.99
439.634	125.82
439.845	125.63
440.057	97.15
440.268	126.4
440.479	78.55
440.69	113.42
440.902	114
441.113	92.89
441.324	86.88
441.535	119.43
441.746	159.53
441.957	85.14
442.168	94.05
442.38	114.78
442.591	143.65
442.802	114.97
443.013	71.19
443.224	112.45
443.435	92.5
443.646	95.79
443.857	116.91
444.068	98.5
444.279	83.2
444.49	190.53
444.701	150.04
444.912	208.94
445.123	157.02
445.334	137.84
445.545	140.16
445.756	132.41
445.967	101.99
446.178	135.9
446.388	159.15
446.599	153.53
446.81	127.57
447.021	132.22
447.232	153.72
447.443	173.48
447.653	98.5
447.864	148.1
448.075	137.84
448.286	166.32
448.496	139.19
448.707	169.03
448.918	95.4
449.129	222.31
449.339	126.99
449.55	138.03
449.761	115.55
449.971	178.72
450.182	116.72
450.393	160.89
450.603	129.12
450.814	177.75
451.024	169.22
451.235	139.38
451.446	201.58
451.656	194.6
451.867	128.34
452.077	155.85
452.288	198.28
452.498	205.07
452.709	139.77
452.919	145.58
453.13	136.67
453.34	172.9
453.55	106.84
453.761	202.74
453.971	178.72
454.182	167.28
454.392	169.03
454.602	212.04
454.813	182.01
455.023	202.93
455.233	135.12
455.444	145.39
455.654	90.75
455.864	171.35
456.075	141.52
456.285	167.48
456.495	141.52
456.705	192.08
456.916	190.73
457.126	207.2
457.336	174.45
457.546	95.21
457.756	160.89
457.967	192.28
458.177	128.15
458.387	202.35
458.597	159.15
458.807	161.47
459.017	162.25
459.227	170.77
459.437	146.75
459.647	185.69
459.857	169.03
460.068	146.17
460.278	186.85
460.488	193.83
460.698	241.68
460.908	175.81
461.117	129.31
461.327	132.22
461.537	173.87
461.747	178.72
461.957	187.24
462.167	263.58
462.377	216.3
462.587	195.96
462.797	212.62
463.007	164.57
463.216	177.55
463.426	241.3
463.636	211.65
463.846	122.34
464.056	150.23
464.265	207.39
464.475	150.43
464.685	171.35
464.895	206.81
465.104	171.55
465.314	197.7
465.524	176.39
465.733	161.28
465.943	209.33
466.153	228.9
466.362	248.85
466.572	184.72
466.782	196.54
466.991	185.88
467.201	233.35
467.41	148.49
467.62	227.15
467.829	207
468.039	219.21
468.249	197.7
468.458	154.69
468.668	206.42
468.877	198.28
469.086	250.79
469.296	226.38
469.505	180.27
469.715	258.15
469.924	197.51
470.134	241.49
470.343	264.74
470.552	208.36
470.762	214.37
470.971	172.32
471.18	207
471.39	184.92
471.599	189.95
471.808	230.25
472.018	182.4
472.227	237.23
472.436	247.5
472.645	196.93
472.855	207.2
473.064	246.72
473.273	232.38
473.482	220.95
473.691	276.95
473.901	219.02
474.11	222.89
474.319	298.65
474.528	229.09
474.737	271.91
474.946	244.78
475.155	267.65
475.364	264.55
475.573	243.81
475.783	232.19
475.992	232.38
476.201	284.11
476.41	210.3
476.619	210.1
476.828	256.41
477.037	235.68
477.245	253.11
477.454	267.45
477.663	223.47
477.872	246.53
478.081	296.51
478.29	214.17
478.499	309.3
478.708	260.67
478.917	350.96
479.125	275.4
479.334	252.34
479.543	232.38
479.752	251.95
479.961	269.2
480.169	289.15
480.378	243.81
480.587	386.22
480.796	302.13
481.004	290.31
481.213	324.03
481.422	286.44
481.63	280.24
481.839	295.93
482.048	321.31
482.256	303.88
482.465	304.07
482.674	306.78
482.882	318.02
483.091	369.56
483.299	308.14
483.508	315.69
483.716	307.36
483.925	313.18
484.134	269.97
484.342	260.09
484.551	331.78
484.759	331
484.967	320.73
485.176	340.11
485.384	297.68
485.593	354.06
485.801	312.4
486.01	327.51
486.218	308.72
486.426	271.71
486.635	304.85
486.843	286.25
487.051	310.27
487.26	304.65
487.468	341.85
487.676	331.58
487.885	315.11
488.093	302.91
488.301	322.09
488.509	331.19
488.717	338.94
488.926	307.95
489.134	326.54
489.342	348.83
489.55	301.94
489.758	333.33
489.967	305.23
490.175	427.68
490.383	322.09
490.591	382.34
490.799	316.08
491.007	364.13
491.215	375.95
491.423	337.01
491.631	329.45
491.839	336.43
492.047	399.98
492.255	303.68
492.463	324.99
492.671	372.46
492.879	391.06
493.087	366.65
493.295	355.61
493.503	376.34
493.711	405.98
493.919	389.9
494.127	407.34
494.334	391.45
494.542	347.28
494.75	383.31
494.958	379.63
495.166	421.09
495.374	395.13
495.581	365.1
495.789	382.93
495.997	416.83
496.205	372.85
496.412	408.31
496.62	380.99
496.828	390.29
497.035	358.13
497.243	405.59
497.451	380.99
497.658	412.76
497.866	403.07
498.074	446.67
498.281	379.05
498.489	473.99
498.696	408.31
498.904	383.7
499.112	390.48
499.319	464.88
499.527	374.4
499.734	454.61
499.942	395.33
500.149	401.52
500.357	438.72
500.564	407.14
500.771	425.36
500.979	399.2
501.186	405.01
501.394	406.76
501.601	409.27
501.808	439.89
502.016	406.37
502.223	419.54
502.43	420.9
502.638	412.37
502.845	377.69
503.052	476.12
503.26	412.18
503.467	496.65
503.674	469.72
503.881	453.64
504.089	490.07
504.296	465.46
504.503	394.94
504.71	451.71
504.917	419.16
505.125	462.36
505.332	436.01
505.539	480.38
505.746	522.42
505.953	488.52
506.16	455.97
506.367	493.55
506.574	527.65
506.781	508.09
506.988	448.99
507.195	487.16
507.402	458.68
507.609	526.3
507.816	443.37
508.023	482.71
508.23	499.95
508.437	433.49
508.644	487.74
508.851	522.62
509.058	482.51
509.265	477.67
509.472	498.4
509.679	598.57
509.885	486.77
510.092	512.54
510.299	502.47
510.506	524.75
510.713	522.62
510.92	491.42
511.126	538.89
511.333	561.95
511.54	541.22
511.746	588.3
511.953	589.07
512.16	611.16
512.367	526.88
512.573	529.59
512.78	531.53
512.987	535.99
513.193	566.02
513.4	504.21
513.606	510.02
513.813	584.62
514.02	548.39
514.226	613.48
514.433	599.92
514.639	527.07
514.846	566.79
515.052	536.95
515.259	551.29
515.465	579.38
515.672	594.88
515.878	644.87
516.085	558.07
516.291	593.33
516.497	525.72
516.704	571.25
516.91	530.17
517.117	527.07
517.323	465.46
517.529	538.31
517.736	566.79
517.942	546.45
518.148	546.25
518.354	567.57
518.561	570.28
518.767	540.44
518.973	613.1
519.179	612.9
519.386	566.99
519.592	582.1
519.798	620.07
520.004	646.42
520.21	612.71
520.417	664.63
520.623	684.2
520.829	688.08
521.035	678.2
521.241	659.02
521.447	685.36
521.653	754.53
521.859	673.35
522.065	681.1
522.271	753.76
522.477	696.6
522.683	761.51
522.889	721.01
523.095	701.06
523.301	721.01
523.507	691.76
523.713	723.34
523.919	699.12
524.125	771.39
524.331	742.13
524.537	787.66
524.742	788.83
524.948	766.74
525.154	770.03
525.36	856.44
525.566	793.86
525.772	827.96
525.977	758.99
526.183	833
526.389	829.9
526.595	764.41
526.8	779.91
527.006	777.59
527.212	733.22
527.417	725.47
527.623	728.96
527.829	802.19
528.034	775.84
528.24	778.17
528.446	777.78
528.651	885.12
528.857	828.16
529.062	891.71
529.268	832.23
529.473	875.43
529.679	840.94
529.884	914.18
530.09	884.54
530.295	921.93
530.501	877.76
530.706	869.04
530.912	871.36
531.117	862.84
531.323	896.55
531.528	929.87
531.733	894.03
531.939	854.89
532.144	892.48
532.35	898.87
532.555	930.65
532.76	911.66
532.966	927.94
533.171	899.26
533.376	896.55
533.581	857.41
533.787	894.42
533.992	923.29
534.197	931.42
534.402	896.74
534.607	923.87
534.813	981.02
535.018	918.64
535.223	911.66
535.428	952.15
535.633	975.79
535.838	989.55
536.043	984.9
536.249	1047.09
536.454	960.29
536.659	999.82
536.864	949.83
537.069	924.26
537.274	976.57
537.479	964.36
537.684	991.49
537.889	950.8
538.094	1060.46
538.299	984.32
538.504	1041.08
538.708	1020.16
538.913	1021.71
539.118	983.54
539.323	1014.35
539.528	1003.3
539.733	990.13
539.938	1014.54
540.142	1018.42
540.347	986.84
540.552	950.99
540.757	994.97
540.962	975.79
541.166	959.52
541.371	932.2
541.576	967.46
541.781	917.86
541.985	1005.24
542.19	1015.7
542.395	1041.28
542.599	1054.65
542.804	1036.63
543.008	1054.26
543.213	967.07
543.418	989.74
543.622	1019.19
543.827	981.02
544.031	1073.83
544.236	1076.35
544.44	1028.1
544.645	1108.51
544.849	1022.29
545.054	1067.82
545.258	1142.8
545.463	1083.9
545.667	1021.71
545.872	1054.65
546.076	1069.95
546.281	1042.05
546.485	1023.45
546.689	1097.47
546.894	1102.89
547.098	1055.23
547.302	1013.18
547.507	1021.9
547.711	1066.27
547.915	1142.61
548.119	1031.98
548.324	1015.51
548.528	1103.08
548.732	1085.07
548.936	1111.03
549.141	1092.82
549.345	1059.49
549.549	1055.23
549.753	1080.03
549.957	1112.38
550.161	1117.81
550.366	1107.15
550.57	1089.52
550.774	1094.37
550.978	1080.03
551.182	1114.32
551.386	1051.16
551.59	1072.86
551.794	1061.43
551.998	1088.36
552.202	1095.53
552.406	1070.92
552.61	1093.78
552.814	1099.21
553.018	1170.51
553.222	1066.27
553.426	1071.5
553.63	1179.61
553.833	1093.4
554.037	1080.61
554.241	1105.8
554.445	1138.15
554.649	1115.29
554.853	1075.57
555.056	1141.06
555.26	1131.56
555.464	1070.15
555.668	1109.67
555.871	1092.04
556.075	1128.08
556.279	1065.3
556.483	1070.92
556.686	1076.15
556.89	1045.93
557.094	1109.28
557.297	1023.45
557.501	1124.4
557.704	1052.71
557.908	1098.63
558.112	1049.8
558.315	1128.66
558.519	1053.29
558.722	1076.93
558.926	1014.15
559.129	1000.98
559.333	984.51
559.536	1029.27
559.74	989.16
559.943	991.49
560.147	1000.4
560.35	1018.22
560.553	1021.9
560.757	955.25
560.96	1080.42
561.164	991.1
561.367	1071.7
561.57	997.69
561.774	1037.98
561.977	1016.09
562.18	977.92
562.384	1093.4
562.587	1016.09
562.79	970.95
562.993	1018.22
563.197	1025.97
563.4	1045.54
563.603	1025.58
563.806	1081.97
564.009	975.99
564.212	992.45
564.416	948.86
564.619	1045.93
564.822	941.11
565.025	1050.58
565.228	956.03
565.431	976.57
565.634	902.56
565.837	935.88
566.04	942.47
566.243	932.2
566.446	860.71
566.649	979.09
566.852	894.22
567.055	924.45
567.258	928.32
567.461	998.46
567.664	949.05
567.867	901.39
568.07	953.9
568.273	927.35
568.475	943.63
568.678	934.72
568.881	911.47
569.084	933.17
569.287	837.07
569.489	849.47
569.692	922.51
569.895	908.76
570.098	849.66
570.3	830.29
570.503	801.23
570.706	853.73
570.909	822.54
571.111	797.93
571.314	791.15
571.516	807.23
571.719	823.7
571.922	860.9
572.124	829.32
572.327	826.61
572.529	759.76
572.732	774.88
572.935	809.36
573.137	856.06
573.34	774.88
573.542	823.31
573.745	801.23
573.947	814.4
574.15	777.01
574.352	772.55
574.554	839.39
574.757	780.3
574.959	782.43
575.162	786.31
575.364	763.25
575.566	836.68
575.769	735.16
575.971	777.78
576.173	681.3
576.376	764.41
576.578	761.7
576.78	867.29
576.982	690.79
577.185	735.93
577.387	717.33
577.589	709.97
577.791	784.95
577.993	761.31
578.196	716.95
578.398	732.64
578.6	780.49
578.802	692.73
579.004	681.68
579.206	731.67
579.408	734.77
579.61	726.05
579.812	754.34
580.014	706.29
580.216	686.91
580.418	708.81
580.62	700.86
580.822	675.48
581.024	724.31
581.226	738.45
581.428	719.85
581.63	754.92
581.832	684.98
582.034	758.41
582.236	690.21
582.438	721.98
582.64	765.19
582.841	777.59
583.043	782.04
583.245	754.14
583.447	761.51
583.649	699.31
583.85	734
584.052	754.14
584.254	680.91
584.456	760.73
584.657	709.39
584.859	708.81
585.061	719.85
585.262	721.98
585.464	690.79
585.666	748.53
585.867	685.95
586.069	746.98
586.27	730.7
586.472	725.08
586.674	705.9
586.875	681.3
587.077	706.48
587.278	712.3
587.48	703.96
587.681	777.39
587.883	710.75
588.084	623.56
588.285	677.23
588.487	705.51
588.688	703
588.89	644.68
589.091	608.83
589.292	644.29
589.494	620.46
589.695	629.37
589.896	560.4
590.098	563.3
590.299	657.47
590.5	593.53
590.702	587.33
590.903	622.59
591.104	672.19
591.305	606.51
591.507	671.03
591.708	654.17
591.909	634.8
592.11	705.51
592.311	671.41
592.512	641.77
592.714	566.21
592.915	613.48
593.116	607.09
593.317	645.45
593.518	606.12
593.719	611.93
593.92	635.57
594.121	717.14
594.322	630.92
594.523	632.86
594.724	582.1
594.925	627.43
595.126	652.82
595.327	621.82
595.528	655.92
595.729	631.31
595.929	605.15
596.13	584.42
596.331	595.85
596.532	660.57
596.733	660.76
596.934	665.21
597.135	678.2
597.335	658.43
597.536	607.28
597.737	633.63
597.938	597.79
598.138	628.98
598.339	631.31
598.54	633.63
598.74	633.83
598.941	621.04
599.142	667.35
599.342	627.24
599.543	619.68
599.744	654.17
599.944	610.38
600.145	602.63
600.345	636.15
600.546	704.55
600.746	690.6
600.947	693.11
601.147	671.8
601.348	671.41
601.548	587.52
601.749	637.32
601.949	598.76
602.15	588.49
602.35	601.08
602.551	634.22
602.751	597.4
602.951	589.07
603.152	562.34
603.352	630.92
603.552	611.74
603.753	633.83
603.953	618.13
604.153	651.27
604.354	622.4
604.554	617.17
604.754	612.71
604.954	586.17
605.155	635.77
605.355	600.12
605.555	667.73
605.755	666.96
605.955	608.06
606.155	660.18
606.356	607.67
606.556	627.82
606.756	611.55
606.956	589.07
607.156	641.19
607.356	566.02
607.556	615.03
607.756	615.81
607.956	640.61
608.156	625.88
608.356	563.3
608.556	622.98
608.756	606.9
608.956	584.03
609.156	594.11
609.356	574.74
609.556	533.85
609.755	590.62
609.955	559.62
610.155	587.91
610.355	599.15
610.555	560.01
610.755	581.52
610.954	528.43
611.154	551.87
611.354	617.17
611.554	564.27
611.753	563.89
611.953	514.87
612.153	582.48
612.352	586.36
612.552	522.23
612.752	510.41
612.951	561.56
613.151	585.78
613.351	520.49
613.55	562.34
613.75	570.67
613.949	555.36
614.149	580.35
614.348	565.63
614.548	532.89
614.747	523.39
614.947	511.38
615.146	471.66
615.346	572.8
615.545	538.12
615.745	564.85
615.944	554.59
616.144	545.87
616.343	555.55
616.542	507.12
616.742	528.04
616.941	541.99
617.14	464.49
617.34	537.34
617.539	521.45
617.738	519.52
617.938	569.12
618.137	497.43
618.336	457.13
618.535	532.11
618.734	484.64
618.934	547.8
619.133	512.15
619.332	535.4
619.531	500.53
619.73	503.44
619.929	525.72
620.128	518.16
620.328	559.04
620.527	486.19
620.726	501.3
620.925	522.81
621.124	486.58
621.323	538.89
621.522	464.11
621.721	497.82
621.92	467.21
622.119	496.27
622.318	443.96
622.517	507.89
622.715	484.26
622.914	432.52
623.113	485.03
623.312	435.04
623.511	475.92
623.71	495.49
623.909	477.67
624.107	520.87
624.306	433.11
624.505	476.31
624.704	465.07
624.902	438.53
625.101	528.62
625.3	477.86
625.499	459.07
625.697	479.22
625.896	437.17
626.095	470.31
626.293	434.66
626.492	429.23
626.69	478.83
626.889	450.16
627.088	486.97
627.286	440.66
627.485	426.52
627.683	445.89
627.882	466.82
628.08	387.77
628.279	421.48
628.477	502.85
628.676	394.36
628.874	493.36
629.073	417.99
629.271	402.49
629.469	452.48
629.668	425.74
629.866	413.73
630.065	414.31
630.263	450.54
630.461	407.14
630.66	431.17
630.858	461.97
631.056	504.4
631.254	462.94
631.453	424.19
631.651	472.82
631.849	470.31
632.047	435.82
632.245	464.69
632.444	454.03
632.642	459.46
632.84	469.14
633.038	450.16
633.236	418.96
633.434	410.63
633.632	407.92
633.83	418.96
634.028	460.23
634.227	436.98
634.425	491.81
634.623	404.43
634.821	450.93
635.019	437.95
635.216	429.04
635.414	460.23
635.612	435.43
635.81	420.51
636.008	483.67
636.206	440.08
636.404	454.03
636.602	421.48
636.8	425.74
636.997	455.58
637.195	468.56
637.393	433.49
637.591	506.92
637.789	438.53
637.986	416.83
638.184	443.18
638.382	475.34
638.58	467.98
638.777	482.71
638.975	463.72
639.173	426.91
639.37	443.18
639.568	443.76
639.765	478.83
639.963	416.25
640.161	473.41
640.358	450.35
640.556	435.04
640.753	393.39
640.951	404.24
641.148	441.63
641.346	385.06
641.543	430.59
641.741	423.03
641.938	407.72
642.136	434.85
642.333	414.89
642.531	438.34
642.728	473.41
642.925	428.46
643.123	409.86
643.32	450.54
643.517	415.67
643.715	434.66
643.912	389.9
644.109	414.89
644.306	426.32
644.504	395.71
644.701	457.32
644.898	432.14
645.095	373.63
645.293	411.79
645.49	442.79
645.687	421.67
645.884	440.47
646.081	357.93
646.278	401.91
646.475	406.76
646.672	377.31
646.87	417.22
647.067	416.64
647.264	421.87
647.461	346.5
647.658	352.12
647.855	424.97
648.052	382.34
648.249	295.74
648.446	383.12
648.642	355.03
648.839	362.58
649.036	360.84
649.233	335.46
649.43	323.83
649.627	323.64
649.824	360.06
650.021	349.41
650.217	359.09
650.414	345.92
650.611	380.02
650.808	382.73
651.004	337.39
651.201	379.83
651.398	415.86
651.595	352.51
651.791	341.08
651.988	393
652.185	355.99
652.381	387.58
652.578	326.35
652.775	366.84
652.971	368.98
653.168	372.08
653.364	350.38
653.561	299.23
653.757	335.84
653.954	380.41
654.15	318.99
654.347	402.49
654.543	349.6
654.74	309.3
654.936	337.78
655.133	341.66
655.329	347.08
655.525	310.46
655.722	344.95
655.918	322.67
656.115	353.28
656.311	282.37
656.507	270.75
656.704	280.43
656.9	300.2
657.096	268.42
657.292	263.77
657.489	364.13
657.685	333.71
657.881	291.28
658.077	312.79
658.273	293.41
658.47	344.37
658.666	327.71
658.862	315.5
659.058	283.15
659.254	368.01
659.45	296.51
659.646	295.74
659.842	274.43
660.038	340.69
660.234	294.38
660.43	332.94
660.626	372.46
660.822	363.36
661.018	356.77
661.214	319.18
661.41	286.25
661.606	328.87
661.802	334.68
661.998	328.68
662.194	288.18
662.39	322.48
662.586	333.52
662.781	349.02
662.977	324.41
663.173	358.32
663.369	310.27
663.564	340.88
663.76	321.51
663.956	298.06
664.152	363.55
664.347	258.73
664.543	303.1
664.739	293.61
664.934	235.1
665.13	243.62
665.326	341.46
665.521	293.03
665.717	270.75
665.912	280.43
666.108	236.65
666.304	268.23
666.499	297.1
666.695	236.84
666.89	298.84
667.086	323.83
667.281	306.01
667.477	357.54
667.672	284.31
667.867	275.59
668.063	295.16
668.258	253.5
668.454	272.49
668.649	345.14
668.844	250.98
669.04	310.08
669.235	262.61
669.43	291.09
669.626	250.4
669.821	282.56
670.016	238.97
670.211	256.99
670.407	251.56
670.602	279.85
670.797	257.96
670.992	306.59
671.187	276.56
671.382	330.42
671.578	254.66
671.773	283.34
671.968	219.6
672.163	292.64
672.358	314.92
672.553	241.1
672.748	254.08
672.943	323.06
673.138	266.68
673.333	303.68
673.528	244.78
673.723	288.76
673.918	250.21
674.113	219.4
674.308	342.24
674.503	295.16
674.698	287.41
674.892	279.08
675.087	301.94
675.282	271.52
675.477	265.51
675.672	259.51
675.867	266.1
676.061	224.44
676.256	217.27
676.451	240.91
676.646	277.91
676.84	244.2
677.035	229.09
677.23	222.31
677.424	270.36
677.619	288.96
677.814	293.61
678.008	345.92
678.203	205.65
678.397	238
678.592	256.41
678.787	321.12
678.981	244.59
679.176	254.08
679.37	264.74
679.565	222.31
679.759	234.32
679.954	287.99
680.148	307.56
680.342	330.42
680.537	291.28
680.731	248.27
680.926	286.63
681.12	269.39
681.314	258.54
681.509	253.5
681.703	277.91
681.897	268.61
682.092	261.45
682.286	283.92
682.48	339.33
682.674	321.7
682.869	268.42
683.063	268.42
683.257	338.17
683.451	235.87
683.645	281.79
683.839	276.75
684.034	259.9
684.228	309.5
684.422	245.17
684.616	238.2
684.81	270.16
685.004	264.16
685.198	267.26
685.392	335.26
685.586	227.54
685.78	294.58
685.974	275.78
686.168	294.77
686.362	349.6
686.556	263.96
686.75	232.96
686.944	256.21
687.138	279.27
687.331	209.52
687.525	248.46
687.719	205.65
687.913	243.04
688.107	257.76
688.301	215.72
688.494	275.98
688.688	209.33
688.882	211.07
689.076	192.28
689.269	257.96
689.463	308.72
689.657	243.62
689.85	230.64
690.044	220.18
690.238	235.29
690.431	254.28
690.625	248.66
690.818	268.23
691.012	262.41
691.205	267.26
691.399	235.68
691.593	291.48
691.786	323.06
691.98	345.92
692.173	345.34
692.366	321.89
692.56	313.37
692.753	368.39
692.947	283.92
693.14	349.02
693.333	334.68
693.527	297.29
693.72	354.83
693.914	289.93
694.107	305.43
694.3	314.73
694.493	316.66
694.687	355.22
694.88	332.94
695.073	382.34
695.266	383.89
695.46	354.06
695.653	409.47
695.846	392.03
696.039	315.69
696.232	333.33
696.425	378.08
696.618	396.29
696.812	375.76
697.005	472.82
697.198	494.72
697.391	446.28
697.584	416.83
697.777	502.66
697.97	480.38
698.163	515.06
698.356	471.86
698.549	540.25
698.742	529.59
698.935	469.34
699.127	537.34
699.32	477.47
699.513	506.73
699.706	508.86
699.899	531.53
700.092	489.29
700.285	522.23
700.477	465.46
700.67	517.58
700.863	552.84
701.056	632.47
701.248	584.81
701.441	621.04
701.634	574.93
701.826	672.38
702.019	553.04
702.212	635.38
702.404	562.34
702.597	593.33
702.79	628.98
702.982	640.22
703.175	692.53
703.367	676.65
703.56	670.83
703.752	754.14
703.945	728.18
704.137	703.77
704.33	735.74
704.522	759.18
704.715	753.76
704.907	756.28
705.1	797.35
705.292	778.75
705.484	789.41
705.677	808.59
705.869	846.37
706.061	861.29
706.254	911.86
706.446	816.73
706.638	841.14
706.831	883.76
707.023	859.16
707.215	947.31
707.407	931.42
707.599	932.97
707.792	990.32
707.984	949.25
708.176	996.14
708.368	972.11
708.56	1003.3
708.752	1000.4
708.944	982.57
709.136	1027.13
709.329	1011.44
709.521	1097.47
709.713	1064.92
709.905	1086.03
710.097	1108.31
710.289	1058.33
710.481	1100.18
710.672	1118.39
710.864	1138.35
711.056	1178.84
711.248	1204.41
711.44	1180.97
711.632	1156.17
711.824	1193.95
712.016	1249.56
712.207	1232.89
712.399	1234.44
712.591	1300.71
712.783	1264.48
712.975	1311.94
713.166	1236.38
713.358	1291.21
713.55	1365.22
713.741	1354.37
713.933	1319.11
714.125	1345.07
714.316	1327.44
714.508	1422.77
714.7	1428.39
714.891	1397.97
715.083	1442.72
715.274	1423.54
715.466	1422.38
715.657	1440.98
715.849	1374.91
716.04	1414.24
716.232	1366.19
716.423	1443.69
716.615	1370.65
716.806	1365.8
716.998	1350.89
717.189	1284.43
717.381	1252.66
717.572	1205.38
717.763	1257.11
717.955	1231.54
718.146	1237.16
718.337	1196.86
718.528	1185.04
718.72	1111.8
718.911	1187.56
719.102	1116.65
719.293	1180.39
719.485	1184.65
719.676	1188.33
719.867	1118
720.058	1165.28
720.249	1182.91
720.44	1204.99
720.632	1226.89
720.823	1285.79
721.014	1381.3
721.205	1383.05
721.396	1428
721.587	1531.65
721.778	1542.7
721.969	1524.87
722.16	1598.11
722.351	1618.45
722.542	1736.06
722.733	1744.39
722.924	1652.36
723.115	1707.58
723.305	1704.67
723.496	1709.51
723.687	1622.13
723.878	1642.09
724.069	1647.9
724.26	1660.3
724.45	1628.53
724.641	1636.08
724.832	1647.51
725.023	1644.22
725.213	1649.84
725.404	1636.66
725.595	1651.78
725.785	1609.93
725.976	1703.7
726.167	1678.9
726.357	1685.68
726.548	1795.73
726.739	1693.24
726.929	1812.39
727.12	1824.4
727.31	1844.94
727.501	1763.57
727.691	1824.02
727.882	1846.88
728.072	1844.17
728.263	1861.02
728.453	1917.02
728.644	1911.01
728.834	1909.27
729.024	1895.9
729.215	1850.75
729.405	1944.53
729.596	1991.22
729.786	1998
729.976	2004.01
730.167	2019.9
730.357	1997.42
730.547	2010.79
730.737	2061.55
730.928	2065.23
731.118	2133.82
731.308	2089.64
731.498	2114.64
731.688	2177.99
731.879	2184.19
732.069	2244.64
732.259	2262.85
732.449	2325.05
732.639	2397.32
732.829	2361.08
733.019	2423.47
733.209	2477.33
733.399	2483.92
733.589	2558.13
733.779	2620.12
733.969	2578.28
734.159	2635.82
734.349	2684.06
734.539	2728.43
734.729	2744.7
734.919	2751.29
735.109	2811.55
735.299	2766.79
735.488	2793.92
735.678	2835.38
735.868	2777.83
736.058	2798.37
736.248	2801.28
736.437	2767.76
736.627	2775.32
736.817	2885.95
737.007	2786.55
737.196	2909.2
737.386	2907.06
737.576	2885.17
737.765	2937.29
737.955	2900.86
738.144	3017.89
738.334	2972.16
738.524	2931.67
738.713	2946.59
738.903	2982.82
739.092	3062.45
739.282	2988.44
739.471	3045.59
739.661	3016.53
739.85	3026.41
740.04	3058.19
740.229	3113.99
740.419	3114.57
740.608	3169.2
740.797	3120.19
740.987	3204.27
741.176	3182.19
741.365	3140.34
741.555	3157.77
741.744	3232.95
741.933	3200.78
742.123	3239.34
742.312	3254.26
742.501	3318
742.69	3331.76
742.88	3264.92
743.069	3359.27
743.258	3332.15
743.447	3347.06
743.636	3381.94
743.825	3297.27
744.014	3350.55
744.204	3367.8
744.393	3356.56
744.582	3431.73
744.771	3416.62
744.96	3395.89
745.149	3417.78
745.338	3404.99
745.527	3440.06
745.716	3421.46
745.905	3375.74
746.094	3440.84
746.283	3457.69
746.471	3487.72
746.66	3518.14
746.849	3530.16
747.038	3481.33
747.227	3477.84
747.416	3485.79
747.604	3440.84
747.793	3410.03
747.982	3488.11
748.171	3488.11
748.359	3551.47
748.548	3552.44
748.737	3516.21
748.926	3469.9
749.114	3416.62
749.303	3525.7
749.491	3498.57
749.68	3455.95
749.869	3506.13
750.057	3504.19
750.246	3467.96
750.434	3449.17
750.623	3475.71
750.811	3456.92
751	3542.36
751.188	3446.84
751.377	3476.49
751.565	3456.92
751.754	3451.49
751.942	3422.63
752.131	3536.16
752.319	3415.26
752.507	3414.49
752.696	3495.47
752.884	3487.53
753.072	3449.94
753.261	3489.86
753.449	3441.81
753.637	3443.16
753.825	3545.66
754.014	3444.91
754.202	3482.11
754.39	3493.15
754.578	3457.11
754.766	3444.91
754.955	3433.28
755.143	3525.12
755.331	3419.72
755.519	3422.04
755.707	3423.59
755.895	3422.24
756.083	3428.05
756.271	3413.91
756.459	3407.71
756.647	3468.35
756.835	3388.53
757.023	3389.49
757.211	3401.89
757.399	3409.26
757.587	3423.01
757.775	3352.3
757.963	3381.94
758.151	3371.86
758.339	3349.97
758.526	3318.2
758.714	3331.37
758.902	3199.04
759.09	3123.29
759.278	2905.9
759.465	2715.45
759.653	2323.69
759.841	2121.03
760.028	1836.8
760.216	1599.66
760.404	1486.32
760.591	1232.31
760.779	1031.4
760.967	911.08
761.154	738.06
761.342	768.87
761.529	753.37
761.717	849.47
761.905	809.75
762.092	889.38
762.28	790.38
762.467	838.04
762.655	735.16
762.842	769.26
763.029	771.19
763.217	772.16
763.404	769.06
763.592	817.11
763.779	782.82
763.966	839.01
764.154	882.79
764.341	920.38
764.528	943.05
764.716	995.36
764.903	1054.07
765.09	1085.84
765.277	1155.59
765.465	1310.59
765.652	1353.79
765.839	1468.68
766.026	1593.85
766.213	1615.74
766.4	1739.54
766.588	1956.73
766.775	1945.5
766.962	2033.65
767.149	2124.33
767.336	2279.71
767.523	2283.2
767.71	2408.36
767.897	2503.68
768.084	2567.23
768.271	2587.38
768.458	2685.22
768.645	2734.24
768.832	2739.28
769.019	2789.07
769.206	2772.6
769.392	2866.76
769.579	2950.66
769.766	2895.05
769.953	2907.26
770.14	2947.94
770.327	2958.79
770.513	3039.01
770.7	3112.82
770.887	3007.62
771.073	3008.39
771.26	3020.21
771.447	2993.09
771.634	2965.38
771.82	3164.55
772.007	2994.06
772.193	3030.48
772.38	3074.66
772.567	3009.75
772.753	3050.24
772.94	3095.19
773.126	3076.98
773.313	3086.28
773.499	3096.36
773.686	3125.8
773.872	3003.36
774.059	3069.42
774.245	3050.24
774.432	3013.63
774.618	2987.86
774.804	3027.19
774.991	2978.56
775.177	3050.24
775.363	2982.43
775.55	3003.94
775.736	2995.99
775.922	2951.24
776.109	2971.39
776.295	3002.19
776.481	3028.54
776.667	3046.17
776.853	2957.63
777.04	2947.17
777.226	2978.75
777.412	3028.16
777.598	2901.83
777.784	2946.01
777.97	2921.98
778.156	2989.21
778.342	2983.21
778.528	2934.58
778.715	2869.48
778.901	2881.88
779.087	2933.8
779.272	2921.21
779.458	2833.83
779.644	2919.08
779.83	2916.95
780.016	2964.8
780.202	2862.31
780.388	2920.43
780.574	2799.34
780.76	2841
780.946	2901.83
781.131	2853.4
781.317	2821.23
781.503	2798.76
781.689	2825.11
781.874	2904.35
782.06	2774.35
782.246	2848.94
782.432	2817.75
782.617	2810.58
782.803	2832.86
782.989	2765.24
783.174	2792.56
783.36	2740.83
783.545	2770.08
783.731	2756.91
783.916	2667.4
784.102	2764.27
784.288	2717.19
784.473	2712.74
784.659	2710.8
784.844	2763.5
785.029	2700.34
785.215	2703.63
785.4	2626.71
785.586	2786.36
785.771	2659.65
785.956	2731.53
786.142	2710.02
786.327	2664.88
786.512	2669.14
786.698	2633.88
786.883	2594.74
787.068	2610.63
787.254	2657.52
787.439	2602.11
787.624	2593.19
787.809	2572.08
787.994	2568.78
788.18	2613.15
788.365	2559.09
788.55	2568.2
788.735	2574.4
788.92	2517.24
789.105	2518.99
789.29	2548.63
789.475	2478.69
789.66	2462.41
789.845	2480.82
790.03	2447.11
790.215	2539.53
790.4	2503.68
790.585	2521.7
790.77	2469.58
790.955	2384.14
791.14	2454.66
791.325	2494.19
791.51	2396.15
791.695	2444.2
791.879	2437.81
792.064	2419.01
792.249	2489.35
792.434	2465.32
792.618	2475.78
792.803	2466.68
792.988	2432.96
793.173	2457.38
793.357	2493.61
793.542	2402.55
793.727	2458.15
793.911	2500.78
794.096	2437.03
794.281	2494.96
794.465	2530.23
794.65	2483.53
794.834	2503.29
795.019	2535.84
795.203	2529.06
795.388	2516.86
795.572	2558.13
795.757	2510.08
795.941	2494.77
796.126	2517.05
796.31	2425.02
796.494	2499.23
796.679	2443.62
796.863	2433.16
797.048	2538.56
797.232	2530.03
797.416	2482.76
797.601	2510.66
797.785	2556.58
797.969	2537.78
798.153	2488.38
798.338	2553.09
798.522	2574.4
798.706	2545.34
798.89	2583.89
799.074	2621.48
799.258	2625.36
799.443	2564.33
799.627	2533.52
799.811	2585.25
799.995	2517.44
800.179	2501.94
800.363	2485.08
800.547	2494.38
800.731	2531.97
800.915	2475.2
801.099	2492.06
801.283	2471.33
801.467	2498.84
801.651	2460.86
801.835	2543.98
802.019	2496.51
802.202	2510.27
802.386	2455.05
802.57	2447.5
802.754	2457.76
802.938	2461.83
803.121	2442.07
803.305	2512.59
803.489	2475.01
803.673	2463.96
803.856	2502.52
804.04	2455.05
804.224	2538.56
804.407	2450.6
804.591	2437.03
804.775	2499.81
804.958	2485.47
805.142	2594.16
805.326	2467.65
805.509	2532.55
805.693	2540.11
805.876	2545.53
806.06	2500.39
806.243	2540.11
806.427	2563.36
806.61	2571.11
806.794	2476.17
806.977	2545.53
807.16	2535.26
807.344	2543.59
807.527	2514.34
807.71	2520.73
807.894	2488.38
808.077	2547.47
808.26	2487.41
808.444	2472.88
808.627	2529.64
808.81	2470.94
808.993	2447.69
809.177	2430.45
809.36	2450.01
809.543	2435.48
809.726	2335.51
809.909	2408.94
810.092	2355.47
810.276	2384.92
810.459	2340.35
810.642	2357.6
810.825	2324.47
811.008	2344.62
811.191	2216.94
811.374	2236.5
811.557	2260.72
811.74	2305.29
811.923	2198.34
812.106	2205.7
812.289	2161.72
812.472	2177.99
812.654	2156.29
812.837	2149.51
813.02	2081.12
813.203	2035.01
813.386	1976.11
813.569	1950.73
813.751	1884.27
813.934	1971.07
814.117	1902.29
814.3	1836.42
814.482	1795.15
814.665	1796.51
814.848	1743.22
815.03	1671.54
815.213	1691.69
815.396	1651.39
815.578	1655.84
815.761	1628.91
815.943	1681.03
816.126	1582.8
816.309	1576.41
816.491	1511.31
816.674	1482.63
816.856	1484.18
817.039	1523.9
817.221	1597.91
817.403	1552
817.586	1514.8
817.768	1562.65
817.951	1467.72
818.133	1470.04
818.315	1505.5
818.498	1576.99
818.68	1594.43
818.862	1564.4
819.045	1602.18
819.227	1547.73
819.409	1551.41
819.591	1609.73
819.774	1553.35
819.956	1533.78
820.138	1632.98
820.32	1618.26
820.502	1653.33
820.684	1732.18
820.866	1731.6
821.048	1770.93
821.231	1795.73
821.413	1762.99
821.595	1754.66
821.777	1802.12
821.959	1754.27
822.141	1831.77
822.323	1664.37
822.505	1612.64
822.686	1589.39
822.868	1504.53
823.05	1408.43
823.232	1346.62
823.414	1302.45
823.596	1379.17
823.778	1338.87
823.96	1404.36
824.141	1418.12
824.323	1402.42
824.505	1496.2
824.687	1560.71
824.868	1586.1
825.05	1688.01
825.232	1737.8
825.413	1781.2
825.595	1740.9
825.777	1656.62
825.958	1724.82
826.14	1710.29
826.321	1737.61
826.503	1728.69
826.685	1755.43
826.866	1774.03
827.048	1719.59
827.229	1678.71
827.411	1654.29
827.592	1608.18
827.773	1592.88
827.955	1553.35
828.136	1579.12
828.318	1545.21
828.499	1570.01
828.68	1523.52
828.862	1538.63
829.043	1578.15
829.224	1567.69
829.406	1538.82
829.587	1536.11
829.768	1527.58
829.949	1507.05
830.131	1543.28
830.312	1620.39
830.493	1536.69
830.674	1582.61
830.855	1557.61
831.036	1544.25
831.218	1582.41
831.399	1612.64
831.58	1550.83
831.761	1566.33
831.942	1573.31
832.123	1568.08
832.304	1480.5
832.485	1530.88
832.666	1550.45
832.847	1571.95
833.028	1543.28
833.209	1564.2
833.389	1523.71
833.57	1476.82
833.751	1535.72
833.932	1597.91
834.113	1533.4
834.294	1576.02
834.475	1559.75
834.655	1592.3
834.836	1597.14
835.017	1594.23
835.198	1527.97
835.378	1580.48
835.559	1639.38
835.74	1586.1
835.92	1562.85
836.101	1543.08
836.281	1598.88
836.462	1598.11
836.643	1644.99
836.823	1647.9
837.004	1633.95
837.184	1685.68
837.365	1643.44
837.545	1643.83
837.726	1622.91
837.906	1668.63
838.087	1665.73
838.267	1624.65
838.448	1593.85
838.628	1626.98
838.808	1645.77
838.989	1677.74
839.169	1599.85
839.349	1646.74
839.53	1665.53
839.71	1656.04
839.89	1615.55
840.07	1702.34
840.251	1612.64
840.431	1671.93
840.611	1655.65
840.791	1612.83
840.971	1690.72
841.151	1622.33
841.332	1599.27
841.512	1648.09
841.692	1619.23
841.872	1647.9
842.052	1591.13
842.232	1652.36
842.412	1594.81
842.592	1602.56
842.772	1631.04
842.952	1648.48
843.132	1590.16
843.312	1573.7
843.492	1579.51
843.672	1629.3
843.851	1569.05
844.031	1596.75
844.211	1613.41
844.391	1556.26
844.571	1608.18
844.751	1620.97
844.93	1586.1
845.11	1544.05
845.29	1561.1
845.47	1601.79
845.649	1552.96
845.829	1593.07
846.009	1567.3
846.188	1579.9
846.368	1596.36
846.547	1558.2
846.727	1608.76
846.907	1525.65
847.086	1579.31
847.266	1582.8
847.445	1582.41
847.625	1571.56
847.804	1518.87
847.984	1570.21
848.163	1544.44
848.343	1514.22
848.522	1552.38
848.701	1559.75
848.881	1533.59
849.06	1541.92
849.239	1523.71
849.419	1529.91
849.598	1476.63
849.777	1459.38
849.957	1435.94
850.136	1410.56
850.315	1402.04
850.494	1384.21
850.674	1414.82
850.853	1465.97
851.032	1413.66
851.211	1473.14
851.39	1477.6
851.569	1428.58
851.748	1394.09
851.927	1429.16
852.107	1468.49
852.286	1377.43
852.465	1377.43
852.644	1433.42
852.823	1460.35
853.002	1420.83
853.181	1402.23
853.359	1469.85
853.538	1339.26
853.717	1431.68
853.896	1337.71
854.075	1283.07
854.254	1262.34
854.433	1202.86
854.611	1242.58
854.79	1219.33
854.969	1268.16
855.148	1280.75
855.327	1221.27
855.505	1282.69
855.684	1272.81
855.863	1318.53
856.041	1278.23
856.22	1373.17
856.399	1301.67
856.577	1371.04
856.756	1320.86
856.934	1475.47
857.113	1476.05
857.291	1395.84
857.47	1345.46
857.648	1363.48
857.827	1387.89
858.005	1412.3
858.184	1363.87
858.362	1435.17
858.541	1386.15
858.719	1392.54
858.898	1357.09
859.076	1332.67
859.254	1425.87
859.433	1373.75
859.611	1355.15
859.789	1305.36
859.967	1391.96
860.146	1407.65
860.324	1313.69
860.502	1303.22
860.68	1270.48
860.859	1304.39
861.037	1314.27
861.215	1329.96
861.393	1339.26
861.571	1333.84
861.749	1301.29
861.927	1320.27
862.105	1329.38
862.283	1328.22
862.461	1295.86
862.639	1254.59
862.817	1281.14
862.995	1299.93
863.173	1306.52
863.351	1297.99
863.529	1304.58
863.707	1331.32
863.885	1288.31
864.063	1209.45
864.241	1248.2
864.418	1318.92
864.596	1258.47
864.774	1253.82
864.952	1283.46
865.129	1275.71
865.307	1235.61
865.485	1198.21
865.663	1288.31
865.84	1176.71
866.018	1195.5
866.196	1068.02
866.373	1128.27
866.551	1073.63
866.728	1048.64
866.906	1070.34
867.084	1092.62
867.261	1142.8
867.439	1130.6
867.616	1161.98
867.794	1110.45
867.971	1161.01
868.149	1173.8
868.326	1219.33
868.503	1187.75
868.681	1196.66
868.858	1161.4
869.035	1126.14
869.213	1204.99
869.39	1141.83
869.567	1236.19
869.745	1150.75
869.922	1179.42
870.099	1193.95
870.276	1232.51
870.454	1189.69
870.631	1186.4
870.808	1166.44
870.985	1200.73
871.162	1225.53
871.339	1178.45
871.517	1141.83
871.694	1128.46
871.871	1151.33
872.048	1143.58
872.225	1149.58
872.402	1152.68
872.579	1095.72
872.756	1142.41
872.933	1073.25
873.11	1136.99
873.287	1129.63
873.463	1124.4
873.64	1094.56
873.817	1113.93
873.994	1127.88
874.171	1075.18
874.348	1105.6
874.524	1046.7
874.701	1080.03
874.878	1009.5
875.055	1091.46
875.231	1082.55
875.408	1109.28
875.585	1029.27
875.762	1113.16
875.938	1087
876.115	1060.65
876.291	1071.5
876.468	1048.64
876.645	1057.55
876.821	1025.2
876.998	1030.04
877.174	1062.01
877.351	1045.73
877.527	1023.07
877.704	1030.82
877.88	1038.37
878.057	1059.3
878.233	1099.4
878.409	1042.44
878.586	1043.22
878.762	1024.81
878.938	1023.45
879.115	952.15
879.291	1050.97
879.467	975.79
879.644	988.39
879.82	1016.09
879.996	972.89
880.172	945.95
880.349	978.31
880.525	1038.37
880.701	938.98
880.877	969.79
881.053	1038.18
881.229	948.86
881.405	1021.71
881.581	985.87
881.757	980.64
881.933	979.67
882.109	1001.95
882.285	951.38
882.461	959.9
882.637	1020.74
882.813	939.56
882.989	969.79
883.165	1031.2
883.341	950.02
883.517	1000.2
883.693	1004.66
883.869	990.9
884.044	956.42
884.22	999.43
884.396	1042.63
884.572	1005.44
884.747	984.9
884.923	991.68
885.099	1012.22
885.275	1022.48
885.45	941.89
885.626	961.65
885.801	975.79
885.977	952.54
886.153	918.44
886.328	971.72
886.504	894.81
886.679	979.67
886.855	923.48
887.03	965.91
887.206	989.55
887.381	968.43
887.557	974.24
887.732	985.87
887.908	997.69
888.083	983.15
888.258	982.77
888.434	956.8
888.609	940.92
888.784	1002.92
888.96	980.83
889.135	935.3
889.31	929.29
889.485	970.75
889.661	953.7
889.836	984.7
890.011	989.35
890.186	963
890.361	912.44
890.537	951.19
890.712	981.22
890.887	973.85
891.062	971.14
891.237	1031.01
891.412	950.22
891.587	971.92
891.762	1009.89
891.937	1031.01
892.112	934.91
892.287	902.94
892.462	937.24
892.637	896.16
892.812	897.71
892.987	857.61
893.161	882.6
893.336	886.47
893.511	906.43
893.686	894.61
893.861	880.66
894.035	891.9
894.21	880.86
894.385	829.32
894.56	851.99
894.734	802.58
894.909	795.99
895.084	809.56
895.258	760.93
895.433	775.65
895.608	758.02
895.782	728.96
895.957	738.26
896.131	740.39
896.306	681.49
896.48	694.28
896.655	674.71
896.829	637.51
897.004	610.58
897.178	632.67
897.353	640.42
897.527	693.11
897.701	642.35
897.876	622.01
898.05	673.55
898.224	670.06
898.399	659.02
898.573	634.6
898.747	536.57
898.921	561.95
899.096	527.85
899.27	493.36
899.444	517.97
899.618	553.81
899.792	572.8
899.967	540.64
900.141	621.62
900.315	528.62
900.489	534.44
900.663	584.81
900.837	548.97
901.011	523.97
901.185	596.05
901.359	571.44
901.533	588.1
901.707	569.7
901.881	553.42
902.055	497.62
902.229	557.69
902.403	618.52
902.576	579.77
902.75	589.46
902.924	658.05
903.098	629.76
903.272	648.36
903.446	688.46
903.619	672.19
903.793	698.35
903.967	660.95
904.14	745.43
904.314	728.76
904.488	674.9
904.661	708.42
904.835	721.01
905.009	756.28
905.182	769.06
905.356	728.18
905.529	721.79
905.703	659.6
905.876	663.47
906.05	640.8
906.223	633.05
906.397	585.39
906.57	569.89
906.744	544.7
906.917	580.35
907.09	536.95
907.264	569.31
907.437	519.32
907.61	519.13
907.784	523.39
907.957	529.2
908.13	490.26
908.304	526.49
908.477	482.51
908.65	488.9
908.823	452.48
908.996	551.1
909.17	491.81
909.343	503.63
909.516	495.69
909.689	477.28
909.862	456.36
910.035	458.87
910.208	473.6
910.381	456.74
910.554	521.07
910.727	473.79
910.9	463.33
911.073	475.15
911.246	544.12
911.419	536.18
911.592	469.34
911.765	445.31
911.938	492.2
912.11	464.88
912.283	487.94
912.456	486.77
912.629	463.72
912.802	461.78
912.974	406.17
913.147	379.63
913.32	350.57
913.493	389.9
913.665	430.01
913.838	437.37
914.01	410.82
914.183	460.62
914.356	425.55
914.528	455
914.701	483.09
914.873	451.9
915.046	399.59
915.218	405.21
915.391	324.22
915.563	356.77
915.736	429.04
915.908	434.07
916.081	392.42
916.253	420.71
916.425	433.11
916.598	422.84
916.77	442.41
916.942	412.96
917.115	333.91
917.287	404.04
917.459	399.01
917.632	346.31
917.804	328.09
917.976	378.47
918.148	392.61
918.32	393.97
918.493	438.53
918.665	471.86
918.837	428.07
919.009	491.23
919.181	451.51
919.353	460.81
919.525	462.75
919.697	432.52
919.869	460.23
920.041	496.85
920.213	541.02
920.385	472.44
920.557	478.06
920.729	443.57
920.901	465.46
921.073	457.91
921.244	459.07
921.416	469.14
921.588	445.89
921.76	445.89
921.932	487.55
922.103	435.04
922.275	441.24
922.447	451.9
922.619	391.26
922.79	421.48
922.962	412.37
923.134	449.96
923.305	391.45
923.477	391.64
923.648	379.05
923.82	407.92
923.991	332.74
924.163	332.94
924.335	365.1
924.506	380.21
924.677	414.89
924.849	361.81
925.02	405.21
925.192	404.62
925.363	389.32
925.535	377.31
925.706	380.21
925.877	439.31
926.049	366.07
926.22	379.24
926.391	374.21
926.562	433.11
926.734	342.82
926.905	406.17
927.076	336.81
927.247	347.28
927.419	333.52
927.59	298.84
927.761	328.09
927.932	300.97
928.103	270.94
928.274	284.5
928.445	269.39
928.616	282.56
928.787	269
928.958	295.35
929.129	256.8
929.3	258.35
929.471	229.67
929.642	176.97
929.813	167.28
929.984	231.03
930.155	158.76
930.326	207.58
930.496	187.82
930.667	108.97
930.838	176
931.009	120.2
931.18	131.83
931.35	148.68
931.521	139.58
931.692	83.59
931.863	74.29
932.033	113.62
932.204	103.93
932.374	109.94
932.545	68.09
932.716	122.34
932.886	120.2
933.057	55.49
933.227	73.32
933.398	123.5
933.568	42.12
933.739	15.97
933.909	35.15
934.08	92.89
934.25	5.89
934.421	-6.12
934.591	60.14
934.761	19.84
934.932	-16.39
935.102	52.78
935.272	33.6
935.443	23.72
935.613	28.95
935.783	49.87
935.953	11.71
936.123	139.38
936.294	24.11
936.464	43.48
936.634	23.33
936.804	-20.84
936.974	10.93
937.144	44.26
937.314	27.59
937.484	23.91
937.655	14.61
937.825	65.76
937.995	17.71
938.165	67.5
938.334	27.21
938.504	64.21
938.674	38.44
938.844	69.25
939.014	100.44
939.184	68.28
939.354	150.04
939.524	125.05
939.694	83.97
939.863	59.17
940.033	127.57
940.203	146.36
940.373	113.23
940.542	131.64
940.712	67.7
940.882	113.42
941.051	117.3
941.221	115.94
941.391	119.43
941.56	71.77
941.73	48.32
941.899	181.04
942.069	57.43
942.238	97.15
942.408	76.22
942.577	107.03
942.747	73.7
942.916	-0.89
943.086	42.71
943.255	109.35
943.425	80.68
943.594	70.22
943.763	25.66
943.933	20.81
944.102	3.18
944.271	60.14
944.441	52.97
944.61	40.38
944.779	90.56
944.948	146.94
945.117	33.02
945.287	38.83
945.456	18.29
945.625	27.79
945.794	80.87
945.963	20.42
946.132	71.38
946.301	45.61
946.47	90.37
946.639	5.31
946.808	57.62
946.977	76.22
947.146	85.72
947.315	47.16
947.484	76.61
947.653	62.47
947.822	46
947.991	39.8
948.16	121.17
948.329	95.6
948.498	82.23
948.666	56.27
948.835	82.04
949.004	45.81
949.173	33.6
949.341	82.23
949.51	88.04
949.679	91.53
949.847	53.55
950.016	116.14
950.185	103.54
950.353	14.81
950.522	70.8
950.69	83.78
950.859	53.17
951.028	86.3
951.196	75.84
951.365	28.56
951.533	64.6
951.701	51.42
951.87	87.27
952.038	46.77
952.207	55.88
952.375	100.44
952.543	50.26
952.712	45.61
952.88	51.23
953.048	81.07
953.217	69.25
953.385	72.93
953.553	134.35
953.721	43.09
953.89	65.76
954.058	33.21
954.226	18.1
954.394	47.55
954.562	16.16
954.73	58.4
954.898	47.74
955.067	89.59
955.235	41.74
955.403	90.17
955.571	142.29
955.739	85.14
955.907	32.24
956.075	37.47
956.243	48.71
956.41	63.24
956.578	16.55
956.746	42.71
956.914	57.62
957.082	83.59
957.25	89.98
957.418	41.54
957.585	82.62
957.753	88.62
957.921	43.87
958.089	80.87
958.256	78.55
958.424	89.01
958.592	72.93
958.759	40.77
958.927	96.37
959.095	27.21
959.262	61.89
959.43	68.86
959.597	85.72
959.765	83
959.932	19.26
960.1	75.45
960.267	64.21
960.435	64.4
960.602	92.3
960.77	78.16
960.937	37.86
961.104	81.45
961.272	14.03
961.439	57.04
961.606	54.91
961.774	103.93
961.941	28.95
962.108	92.69
962.275	72.15
962.443	95.79
962.61	104.12
962.777	149.46
962.944	94.24
963.111	92.11
963.278	110.71
963.446	79.13
963.613	85.52
963.78	96.95
963.947	84.94
964.114	94.63
964.281	150.82
964.448	100.64
964.615	62.47
964.782	97.54
964.949	97.73
965.116	96.18
965.282	127.95
965.449	67.7
965.616	61.69
965.783	79.9
965.95	89.01
966.117	46.97
966.283	89.2
966.45	69.05
966.617	93.27
966.784	145.58
966.95	118.85
967.117	102.19
967.284	82.04
967.45	64.02
967.617	139.38
967.784	129.5
967.95	127.76
968.117	88.43
968.283	114.59
968.45	173.68
968.616	106.25
968.783	163.02
968.949	117.88
969.116	145
969.282	113.42
969.449	139
969.615	101.41
969.781	79.71
969.948	101.41
970.114	68.28
970.28	149.65
970.447	118.27
970.613	176.78
970.779	85.14
970.945	145.58
971.112	126.79
971.278	93.66
971.444	97.73
971.61	126.02
971.776	108.97
971.942	132.6
972.108	130.28
972.275	97.54
972.441	114.97
972.607	163.41
972.773	75.45
972.939	116.14
973.105	100.83
973.271	56.65
973.437	78.16
973.602	67.7
973.768	110.9
973.934	101.6
974.1	119.04
974.266	41.74
974.432	111.68
974.598	89.59
974.763	143.65
974.929	63.82
975.095	151.98
975.261	83.97
975.426	50.07
975.592	107.61
975.758	130.47
975.923	25.66
976.089	73.32
976.255	105.87
976.42	112.26
976.586	128.54
976.751	119.43
976.917	148.1
977.082	118.85
977.248	55.1
977.413	37.09
977.579	77.97
977.744	120.2
977.91	46.97
978.075	72.74
978.24	117.69
978.406	59.17
978.571	56.65
978.736	80.87
978.902	111.49
979.067	82.62
979.232	14.42
979.397	83.97
979.563	141.32
979.728	50.07
979.893	65.95
980.058	57.43
980.223	139.97
980.388	96.37
980.554	80.29
980.719	56.07
980.884	91.34
981.049	116.72
981.214	60.92
981.379	99.47
981.544	71.38
981.709	99.28
981.874	66.73
982.039	86.1
982.204	138.42
982.368	79.71
982.533	75.06
982.698	109.16
982.863	129.89
983.028	82.81
983.193	110.52
983.357	119.62
983.522	107.8
983.687	88.82
983.852	92.11
984.016	86.49
984.181	104.9
984.346	94.63
984.51	122.34
984.675	102.96
984.839	106.25
985.004	95.21
985.168	112.26
985.333	116.91
985.498	92.69
985.662	109.94
985.827	83.2
985.991	79.52
986.155	91.92
986.32	130.67
986.484	127.18
986.649	87.85
986.813	43.09
986.977	100.05
987.142	107.42
987.306	45.61
987.47	46
987.634	82.42
987.799	64.02
987.963	82.62
988.127	114.39
988.291	133.19
988.455	86.69
988.62	78.55
988.784	107.61
988.948	114.78
989.112	59.37
989.276	85.14
989.44	92.89
989.604	44.45
989.768	61.69
989.932	138.03
990.096	65.37
990.26	50.46
990.424	57.24
990.588	82.81
990.752	127.95
990.915	139.97
991.079	83.39
991.243	69.05
991.407	93.08
991.571	70.22
991.734	102.38
991.898	105.48
992.062	157.4
992.226	86.49
992.389	73.9
992.553	41.54
992.717	65.57
992.88	52.59
993.044	77.19
993.207	82.62
993.371	80.68
993.535	88.04
993.698	104.12
993.862	101.41
994.025	130.67
994.189	87.07
994.352	97.54
994.515	100.44
994.679	98.5
994.842	69.25
995.006	111.1
995.169	46.77
995.332	42.9
995.496	108.77
995.659	33.21
995.822	90.95
995.985	41.93
996.149	100.64
996.312	95.21
996.475	127.76
996.638	57.62
996.801	132.41
996.964	122.14
997.128	78.16
997.291	80.29
997.454	79.13
997.617	44.06
997.78	95.6
997.943	56.07
998.106	98.7
998.269	40.77
998.432	51.04
998.595	64.02
998.758	21.01
998.92	21.59
999.083	19.26
999.246	52.2
999.409	28.95
999.572	0.08
999.735	27.79
999.897	92.11
1000.06	62.85
1000.223	56.46
1000.386	83.2
1000.548	59.75
1000.711	63.05
1000.874	67.12
1001.036	30.5
1001.199	70.02
1001.361	47.74
1001.524	35.34
1001.687	115.36
1001.849	24.11
1002.012	65.76
1002.174	70.6
1002.337	78.94
1002.499	46.77
1002.661	84.55
1002.824	13.64
1002.986	42.51
1003.149	40.77
1003.311	45.61
1003.473	93.27
1003.636	21.97
1003.798	56.07
1003.96	78.55
1004.123	51.04
1004.285	49.1
1004.447	31.86
1004.609	77.19
1004.771	68.09
1004.933	5.7
1005.096	34.18
1005.258	-16
1005.42	42.9
1005.582	86.49
1005.744	39.61
1005.906	13.26
1006.068	45.61
1006.23	11.12
1006.392	2.79
1006.554	20.42
1006.716	83.59
1006.878	66.73
1007.04	24.69
1007.202	43.48
1007.363	27.4
1007.525	49.87
1007.687	62.66
1007.849	94.05
1008.011	15.19
1008.172	16.74
1008.334	24.3
1008.496	62.08
1008.658	2.99
1008.819	27.79
1008.981	15
1009.143	16.94
1009.304	46.19
1009.466	45.42
1009.627	82.62
1009.789	135.7
1009.95	59.95
1010.112	12.67
1010.273	25.07
1010.435	2.21
1010.596	44.06
1010.758	26.04
1010.919	5.89
1011.081	-10.58
1011.242	20.62
1011.403	73.9
1011.565	9.77
1011.726	44.26
1011.887	31.66
1012.049	32.44
1012.21	41.93
1012.371	95.6
1012.532	-23.17
1012.693	21.59
1012.855	17.13
1013.016	56.27
1013.177	77.97
1013.338	21.2
1013.499	89.98
1013.66	58.2
1013.821	63.24
1013.982	42.9
1014.143	30.5
1014.304	12.09
1014.465	21.78
1014.626	34.37
1014.787	31.66
1014.948	126.79
1015.109	-24.33
1015.27	52.59
1015.431	9.19
1015.592	10.16
1015.752	83.59
1015.913	38.64
1016.074	51.62
1016.235	44.26
1016.395	29.14
1016.556	28.17
1016.717	25.27
1016.877	72.15
1017.038	13.06
1017.199	42.51
1017.359	12.09
1017.52	32.63
1017.681	42.71
1017.841	16.55
1018.002	19.46
1018.162	22.36
1018.323	65.18
1018.483	34.37
1018.644	39.22
1018.804	3.37
1018.964	14.42
1019.125	18.1
1019.285	17.32
1019.446	2.99
1019.606	-9.8
1019.766	7.83
1019.926	26.82
1020.087	16.36
1020.247	-10.19
1020.407	40.96
1020.567	57.62
1020.728	-0.31
1020.888	5.7
1021.048	14.81
1021.208	-10.38
1021.368	9.77
1021.528	73.9
1021.688	58.98
1021.848	54.33
1022.008	15.19
1022.168	6.28
1022.328	39.99
1022.488	20.62
1022.648	11.71
1022.808	5.31
1022.968	36.12
1023.128	6.47
1023.288	-4.96
1023.448	31.47
1023.608	21.39
1023.767	53.55
1023.927	-22.01
1024.087	-24.72
1024.247	-28.59
1024.406	7.64
1024.566	16.36
1024.726	-21.04
1024.885	28.76
1025.045	39.61
1025.205	-8.64
1025.364	27.4
1025.524	24.88
1025.683	-14.45
1025.843	32.82
1026.003	15
1026.162	63.44
1026.321	61.3
1026.481	17.71
1026.64	-4.18
1026.8	17.13
1026.959	20.04
1027.119	21.39
1027.278	1.82
1027.437	6.09
1027.597	35.92
1027.756	43.29
1027.915	26.43
1028.074	12.67
1028.234	-30.53
1028.393	12.48
1028.552	-16.39
1028.711	-63.27
1028.87	50.07
1029.03	-27.63
1029.189	13.06
1029.348	-32.28
1029.507	30.31
1029.666	2.21
1029.825	-8.44
1029.984	2.99
1030.143	20.23
1030.302	-4.76
1030.461	-33.44
1030.62	-5.15
1030.779	38.44
1030.938	21.97
1031.097	-33.24
1031.255	51.81
1031.414	47.36
1031.573	57.24
1031.732	-34.79
1031.891	23.52
1032.049	52.97
1032.208	21.01
1032.367	-21.43
1032.525	-9.8
1032.684	-9.03
1032.843	17.91
1033.001	-11.93
1033.16	128.54
1033.319	53.94
1033.477	23.33
1033.636	-3.41
1033.794	-21.62
1033.953	20.81
1034.111	60.92
1034.27	-6.12
1034.428	25.07
1034.587	-22.39
1034.745	17.91
1034.903	-2.63
1035.062	24.88
1035.22	-11.93
1035.378	42.71
1035.537	-13.68
1035.695	22.75
1035.853	-2.44
1036.011	48.32
1036.17	33.79
1036.328	-46.81
1036.486	6.28
1036.644	25.07
1036.802	-62.89
1036.96	-25.69
1037.119	-5.73
1037.277	-7.86
1037.435	-22.78
1037.593	-5.93
1037.751	-14.06
1037.909	44.06
1038.067	44.06
