Data from oakcork_FLMT105791__172__17-31-45-048.txt Node

Date: Mon Mar 20 17:31:45 GMT 2023
User: antho
Spectrometer: FLMT10579
Trigger mode: 0
Integration Time (sec): 1.000000E-1
Scans to average: 10
Electric dark correction enabled: true
Nonlinearity correction enabled: false
Boxcar width: 0
XAxis mode: Wavelengths
Number of Pixels in Spectrum: 3648
>>>>>Begin Spectral Data<<<<<
345.248	-156.66
345.464	-156.66
345.681	-156.66
345.898	-184.95
346.114	-143.68
346.331	-17.36
346.548	15.97
346.764	1.82
346.981	-15.81
347.197	-19.1
347.414	-0.31
347.631	-28.21
347.847	60.72
348.064	-3.99
348.28	29.72
348.497	-25.49
348.713	2.02
348.93	23.72
349.146	19.07
349.363	-9.61
349.579	16.55
349.796	-13.29
350.012	-16.78
350.229	12.48
350.445	6.28
350.661	-17.74
350.878	-13.68
351.094	20.81
351.311	18.87
351.527	10.35
351.743	-11.93
351.96	11.51
352.176	21.2
352.392	4.73
352.609	17.91
352.825	-14.84
353.041	-13.68
353.257	-3.21
353.474	-11.35
353.69	7.25
353.906	19.46
354.122	-15.81
354.339	42.9
354.555	-4.38
354.771	-17.55
354.987	41.35
355.203	56.85
355.42	-26.46
355.636	-0.11
355.852	-11.74
356.068	7.25
356.284	-48.74
356.5	23.91
356.716	-4.18
356.932	11.32
357.148	38.44
357.364	13.06
357.58	78.35
357.796	29.34
358.012	33.6
358.228	31.86
358.444	-56.11
358.66	38.64
358.876	0.27
359.092	1.63
359.308	20.81
359.524	11.51
359.74	-0.69
359.956	1.24
360.172	-16.58
360.388	25.27
360.604	-3.41
360.819	83
361.035	15.77
361.251	19.07
361.467	-35.76
361.683	27.59
361.898	28.17
362.114	27.79
362.33	19.07
362.546	33.99
362.762	2.41
362.977	42.32
363.193	-7.09
363.409	36.89
363.624	-3.21
363.84	-12.32
364.056	-8.83
364.271	42.71
364.487	36.89
364.703	-4.76
364.918	-37.31
365.134	-22.01
365.35	-5.34
365.565	87.65
365.781	-14.45
365.996	15.19
366.212	52.59
366.427	47.55
366.643	-16.39
366.858	-13.09
367.074	-9.22
367.289	42.32
367.505	98.31
367.72	-18.13
367.936	-8.83
368.151	44.64
368.367	9.57
368.582	28.17
368.798	-19.29
369.013	61.11
369.228	13.26
369.444	33.21
369.659	45.22
369.874	35.73
370.09	41.35
370.305	-49.32
370.52	-10.96
370.736	50.07
370.951	-3.99
371.166	67.12
371.381	53.75
371.597	40.19
371.812	-34.6
372.027	-45.06
372.242	-3.21
372.458	72.54
372.673	8.99
372.888	-2.44
373.103	32.44
373.318	96.37
373.533	51.62
373.749	29.92
373.964	-17.55
374.179	39.02
374.394	-1.86
374.609	59.37
374.824	-33.24
375.039	27.59
375.254	-23.36
375.469	43.67
375.684	21.01
375.899	34.37
376.114	13.45
376.329	8.61
376.544	36.7
376.759	35.34
376.974	-5.73
377.189	-30.34
377.404	6.86
377.619	55.88
377.834	-36.92
378.049	-48.55
378.264	-60.17
378.478	5.7
378.693	-20.46
378.908	16.55
379.123	-12.32
379.338	54.91
379.553	29.34
379.767	24.88
379.982	25.07
380.197	27.01
380.412	17.52
380.626	-13.87
380.841	79.9
381.056	36.89
381.271	64.02
381.485	-21.04
381.7	-31.69
381.915	19.84
382.129	7.25
382.344	14.81
382.559	15.19
382.773	45.03
382.988	-28.79
383.202	16.36
383.417	-7.09
383.632	114
383.846	19.26
384.061	22.75
384.275	-21.23
384.49	53.94
384.704	10.16
384.919	19.46
385.133	3.57
385.348	15.39
385.562	-27.24
385.777	60.92
385.991	0.08
386.206	-21.81
386.42	-17.74
386.634	62.08
386.849	18.68
387.063	27.59
387.277	-14.64
387.492	-0.89
387.706	-12.51
387.92	-5.34
388.135	32.05
388.349	20.04
388.563	29.72
388.778	17.91
388.992	32.63
389.206	31.27
389.42	58.01
389.635	21.01
389.849	27.21
390.063	54.52
390.277	30.5
390.491	67.89
390.706	37.09
390.92	48.13
391.134	18.29
391.348	48.13
391.562	-28.4
391.776	15.58
391.99	-31.69
392.205	33.6
392.419	-46.61
392.633	15.97
392.847	36.12
393.061	-17.36
393.275	89.4
393.489	16.94
393.703	41.35
393.917	53.17
394.131	-12.51
394.345	43.09
394.559	58.01
394.773	-6.12
394.986	39.02
395.2	27.59
395.414	37.28
395.628	-38.86
395.842	27.59
396.056	-23.36
396.27	-34.21
396.484	9.77
396.697	19.84
396.911	84.94
397.125	13.06
397.339	44.64
397.553	30.5
397.766	62.66
397.98	59.95
398.194	52.2
398.408	6.86
398.621	47.94
398.835	19.46
399.049	20.42
399.262	41.35
399.476	32.05
399.69	48.71
399.903	76.61
400.117	-27.82
400.331	43.09
400.544	-21.62
400.758	141.71
400.971	13.26
401.185	29.14
401.398	-6.31
401.612	64.21
401.826	29.34
402.039	38.83
402.253	5.31
402.466	15.19
402.68	-2.05
402.893	57.04
403.106	18.29
403.32	15.19
403.533	16.55
403.747	21.01
403.96	39.22
404.174	50.26
404.387	-16.19
404.6	28.37
404.814	43.29
405.027	15.39
405.24	39.41
405.454	6.09
405.667	49.29
405.88	-30.53
406.094	20.62
406.307	60.72
406.52	34.37
406.733	-8.25
406.947	-15.81
407.16	71.96
407.373	71.19
407.586	-3.6
407.799	-17.36
408.012	28.95
408.226	27.01
408.439	70.22
408.652	-27.82
408.865	39.22
409.078	21.78
409.291	8.61
409.504	-27.43
409.717	34.76
409.93	38.25
410.143	21.39
410.357	-23.75
410.57	0.27
410.783	0.66
410.996	34.37
411.209	33.6
411.421	41.35
411.634	24.3
411.847	-25.11
412.06	20.62
412.273	11.9
412.486	27.79
412.699	108.58
412.912	12.87
413.125	37.28
413.338	17.32
413.55	63.05
413.763	43.09
413.976	12.87
414.189	0.08
414.402	21.59
414.615	65.37
414.827	4.73
415.04	64.4
415.253	52.78
415.466	66.92
415.678	67.12
415.891	22.94
416.104	33.79
416.316	41.54
416.529	2.99
416.742	63.05
416.954	67.12
417.167	20.81
417.38	16.36
417.592	51.42
417.805	15.77
418.017	-8.64
418.23	41.74
418.442	3.96
418.655	29.72
418.868	32.05
419.08	49.1
419.293	31.66
419.505	63.24
419.718	28.95
419.93	75.84
420.142	5.7
420.355	50.46
420.567	71.77
420.78	40.19
420.992	17.13
421.205	73.51
421.417	-22.2
421.629	31.86
421.842	-4.18
422.054	13.06
422.266	46.77
422.479	70.6
422.691	25.46
422.903	47.74
423.115	6.47
423.328	19.07
423.54	55.88
423.752	9.57
423.964	7.83
424.177	41.35
424.389	24.88
424.601	117.88
424.813	37.86
425.025	64.99
425.238	54.14
425.45	11.32
425.662	10.93
425.874	304.85
426.086	37.67
426.298	39.99
426.51	44.45
426.722	36.89
426.934	-16.39
427.146	72.54
427.358	-2.63
427.57	72.35
427.782	27.01
427.994	37.09
428.206	15.19
428.418	7.44
428.63	31.86
428.842	52.2
429.054	25.46
429.266	66.34
429.478	11.32
429.69	34.76
429.902	-1.28
430.114	74.29
430.325	34.76
430.537	33.41
430.749	27.59
430.961	8.61
431.173	72.93
431.384	77.97
431.596	-16
431.808	20.81
432.02	26.43
432.231	41.16
432.443	52.2
432.655	15
432.867	14.22
433.078	28.17
433.29	97.54
433.502	54.14
433.713	65.76
433.925	42.32
434.136	75.06
434.348	-5.73
434.56	-14.84
434.771	110.32
434.983	-2.24
435.194	13.45
435.406	17.32
435.617	78.94
435.829	72.93
436.04	54.72
436.252	46.39
436.463	62.27
436.675	70.22
436.886	44.45
437.098	41.16
437.309	108.77
437.521	24.69
437.732	43.87
437.943	22.56
438.155	51.62
438.366	8.22
438.578	87.46
438.789	53.94
439	75.84
439.211	40.19
439.423	66.34
439.634	61.3
439.845	58.2
440.057	49.68
440.268	79.71
440.479	34.76
440.69	40.19
440.902	10.54
441.113	61.5
441.324	8.22
441.535	64.4
441.746	72.74
441.957	-5.15
442.168	3.57
442.38	63.24
442.591	63.05
442.802	33.6
443.013	26.04
443.224	37.09
443.435	33.41
443.646	23.14
443.857	37.67
444.068	6.67
444.279	14.22
444.49	88.62
444.701	31.86
444.912	109.16
445.123	32.44
445.334	70.8
445.545	36.7
445.756	53.55
445.967	10.35
446.178	73.7
446.388	84.17
446.599	84.36
446.81	61.3
447.021	35.92
447.232	80.68
447.443	100.25
447.653	25.66
447.864	56.65
448.075	23.52
448.286	77.77
448.496	53.36
448.707	84.17
448.918	39.22
449.129	133.19
449.339	30.31
449.55	77.19
449.761	53.94
449.971	77
450.182	13.64
450.393	85.14
450.603	61.3
450.814	55.3
451.024	57.82
451.235	91.53
451.446	70.99
451.656	95.21
451.867	33.21
452.077	88.62
452.288	118.46
452.498	128.34
452.709	51.23
452.919	87.07
453.13	50.65
453.34	120.4
453.55	27.79
453.761	86.49
453.971	51.23
454.182	76.42
454.392	93.27
454.602	120.01
454.813	81.07
455.023	87.85
455.233	43.29
455.444	79.71
455.654	3.37
455.864	66.73
456.075	61.11
456.285	58.79
456.495	51.81
456.705	71.96
456.916	84.94
457.126	118.46
457.336	55.69
457.546	-6.12
457.756	41.35
457.967	76.61
458.177	52
458.387	113.81
458.597	39.02
458.807	56.07
459.017	44.45
459.227	75.45
459.437	62.47
459.647	82.62
459.857	83
460.068	77.39
460.278	101.99
460.488	87.46
460.698	139.58
460.908	48.13
461.117	8.02
461.327	46.58
461.537	69.64
461.747	60.14
461.957	93.47
462.167	163.6
462.377	84.17
462.587	72.15
462.797	99.67
463.007	78.35
463.216	78.35
463.426	100.25
463.636	123.3
463.846	29.92
464.056	55.3
464.265	87.85
464.475	44.45
464.685	65.76
464.895	98.12
465.104	78.55
465.314	95.6
465.524	74.87
465.733	45.42
465.943	129.89
466.153	142.48
466.362	116.14
466.572	74.87
466.782	57.62
466.991	83.39
467.201	140.35
467.41	34.57
467.62	100.05
467.829	88.04
468.039	97.15
468.249	63.63
468.458	91.53
468.668	75.64
468.877	103.35
469.086	123.89
469.296	122.92
469.505	44.06
469.715	164.38
469.924	112.45
470.134	124.85
470.343	127.37
470.552	83.97
470.762	83.2
470.971	59.95
471.18	70.22
471.39	79.9
471.599	57.24
471.808	112.45
472.018	37.86
472.227	113.23
472.436	143.84
472.645	73.12
472.855	47.74
473.064	120.98
473.273	76.22
473.482	96.37
473.691	126.6
473.901	97.34
474.11	84.17
474.319	173.1
474.528	84.17
474.737	127.37
474.946	105.67
475.155	100.25
475.364	114.2
475.573	107.8
475.783	113.42
475.992	114.97
476.201	139.97
476.41	95.02
476.619	64.6
476.828	104.51
477.037	91.92
477.245	121.37
477.454	112.45
477.663	112.45
477.872	67.12
478.081	153.33
478.29	68.86
478.499	155.27
478.708	108.39
478.917	143.84
479.125	127.57
479.334	125.82
479.543	83.78
479.752	120.4
479.961	91.92
480.169	107.22
480.378	87.27
480.587	203.13
480.796	125.63
481.004	133.19
481.213	146.55
481.422	108.77
481.63	99.28
481.839	134.74
482.048	138.61
482.256	113.62
482.465	111.68
482.674	137.06
482.882	121.17
483.091	160.31
483.299	138.8
483.508	148.68
483.716	115.36
483.925	141.13
484.134	146.55
484.342	118.85
484.551	147.13
484.759	154.88
484.967	136.29
485.176	159.34
485.384	163.41
485.593	144.42
485.801	153.14
486.01	144.03
486.218	171.16
486.426	121.17
486.635	141.52
486.843	108.19
487.051	160.31
487.26	130.67
487.468	149.07
487.676	170.38
487.885	116.14
488.093	152.37
488.301	141.13
488.509	144.23
488.717	156.05
488.926	138.8
489.134	100.64
489.342	141.71
489.55	108.58
489.758	116.91
489.967	98.12
490.175	224.05
490.383	79.13
490.591	172.9
490.799	88.82
491.007	200.61
491.215	162.63
491.423	151.78
491.631	144.23
491.839	150.43
492.047	171.16
492.255	139.19
492.463	111.49
492.671	160.31
492.879	185.11
493.087	155.27
493.295	168.06
493.503	133.38
493.711	184.72
493.919	172.9
494.127	181.82
494.334	178.33
494.542	121.56
494.75	126.4
494.958	162.25
495.166	177.94
495.374	152.37
495.581	163.8
495.789	168.45
495.997	210.68
496.205	178.91
496.412	159.15
496.62	164.77
496.828	170.97
497.035	152.56
497.243	174.07
497.451	158.76
497.658	184.92
497.866	168.25
498.074	223.86
498.281	158.57
498.489	260.28
498.696	198.48
498.904	174.26
499.112	173.48
499.319	213.98
499.527	178.91
499.734	221.15
499.942	130.28
500.149	138.42
500.357	189.76
500.564	157.98
500.771	181.04
500.979	173.29
501.186	157.6
501.394	203.71
501.601	199.25
501.808	255.44
502.016	170.38
502.223	175.42
502.43	183.75
502.638	179.1
502.845	154.69
503.052	232.38
503.26	160.31
503.467	248.27
503.674	167.87
503.881	193.05
504.089	276.36
504.296	213.59
504.503	151.2
504.71	207.2
504.917	149.27
505.125	206.81
505.332	209.72
505.539	198.28
505.746	222.12
505.953	209.52
506.16	203.9
506.367	237.81
506.574	234.51
506.781	257.57
506.988	181.82
507.195	209.52
507.402	194.41
507.609	230.83
507.816	177.36
508.023	208.36
508.23	198.28
508.437	171.93
508.644	225.41
508.851	271.71
509.058	218.63
509.265	213.01
509.472	243.81
509.679	299.42
509.885	198.28
510.092	207.97
510.299	228.51
510.506	235.1
510.713	216.11
510.92	258.73
511.126	269.2
511.333	266.87
511.54	254.08
511.746	285.08
511.953	246.14
512.16	262.61
512.367	212.43
512.573	230.25
512.78	236.06
512.987	247.69
513.193	254.28
513.4	192.08
513.606	230.83
513.813	237.61
514.02	227.54
514.226	292.06
514.433	256.6
514.639	225.8
514.846	232.19
515.052	253.89
515.259	234.13
515.465	235.68
515.672	265.9
515.878	320.93
516.085	227.54
516.291	280.24
516.497	227.35
516.704	259.31
516.91	215.72
517.117	208.55
517.323	204.1
517.529	234.9
517.736	241.1
517.942	242.85
518.148	220.76
518.354	242.26
518.561	240.52
518.767	246.53
518.973	286.83
519.179	257.57
519.386	253.31
519.592	235.29
519.798	229.28
520.004	266.68
520.21	239.94
520.417	284.89
520.623	304.26
520.829	285.66
521.035	305.62
521.241	282.56
521.447	312.6
521.653	386.22
521.859	269.97
522.065	281.98
522.271	365.88
522.477	328.68
522.683	349.41
522.889	325.96
523.095	308.91
523.301	294.38
523.507	291.86
523.713	326.74
523.919	256.02
524.125	334.49
524.331	287.99
524.537	335.84
524.742	336.81
524.948	333.52
525.154	316.66
525.36	432.52
525.566	328.48
525.772	371.3
525.977	296.32
526.183	362.39
526.389	369.56
526.595	370.53
526.8	330.42
527.006	328.09
527.212	333.71
527.417	322.09
527.623	275.2
527.829	343.4
528.034	348.44
528.24	357.35
528.446	309.69
528.651	362
528.857	374.79
529.062	405.79
529.268	374.01
529.473	356.77
529.679	349.02
529.884	448.8
530.09	398.81
530.295	443.76
530.501	397.46
530.706	385.83
530.912	309.11
531.117	380.79
531.323	382.34
531.528	370.53
531.733	355.03
531.939	368.78
532.144	379.24
532.35	375.95
532.555	447.25
532.76	417.02
532.966	438.72
533.171	412.37
533.376	389.9
533.581	390.29
533.787	399.59
533.992	392.03
534.197	456.36
534.402	365.1
534.607	388.16
534.813	491.62
535.018	412.96
535.223	382.34
535.428	445.51
535.633	435.24
535.838	446.09
536.043	392.42
536.249	478.44
536.454	427.87
536.659	424.97
536.864	399.2
537.069	430.78
537.274	448.61
537.479	429.42
537.684	443.76
537.889	391.06
538.094	457.32
538.299	417.8
538.504	453.64
538.708	438.92
538.913	476.7
539.118	432.91
539.323	455
539.528	442.02
539.733	455.39
539.938	469.34
540.142	479.22
540.347	461.78
540.552	436.01
540.757	442.41
540.962	441.05
541.166	389.51
541.371	417.22
541.576	454.42
541.781	368.59
541.985	449.19
542.19	448.22
542.395	458.68
542.599	518.55
542.804	448.02
543.008	500.14
543.213	452.48
543.418	428.26
543.622	454.42
543.827	434.27
544.031	493.94
544.236	492.59
544.44	463.52
544.645	526.69
544.849	458.68
545.054	458.49
545.258	539.86
545.463	528.04
545.667	451.12
545.872	477.09
546.076	501.69
546.281	482.12
546.485	463.33
546.689	475.15
546.894	521.84
547.098	503.82
547.302	411.41
547.507	465.07
547.711	479.99
547.915	510.02
548.119	441.05
548.324	475.92
548.528	517.58
548.732	481.93
548.936	517.19
549.141	542.77
549.345	434.27
549.549	478.64
549.753	462.36
549.957	542.57
550.161	538.7
550.366	493.36
550.57	473.6
550.774	485.61
550.978	482.32
551.182	508.67
551.386	466.43
551.59	476.89
551.794	473.79
551.998	473.41
552.202	464.88
552.406	445.12
552.61	524.36
552.814	505.18
553.018	543.93
553.222	478.83
553.426	478.44
553.63	564.27
553.833	464.3
554.037	421.87
554.241	498.2
554.445	508.28
554.649	480.57
554.853	489.49
555.056	498.79
555.26	527.46
555.464	513.7
555.668	505.57
555.871	531.92
556.075	491.42
556.279	487.16
556.483	450.35
556.686	479.8
556.89	483.29
557.094	505.95
557.297	454.22
557.501	539.47
557.704	439.31
557.908	522.04
558.112	447.44
558.315	543.15
558.519	480.19
558.722	499.37
558.926	460.23
559.129	453.26
559.333	438.14
559.536	426.13
559.74	447.64
559.943	436.98
560.147	461.39
560.35	464.88
560.553	449.77
560.757	410.63
560.96	503.24
561.164	439.89
561.367	537.15
561.57	441.63
561.774	499.56
561.977	437.17
562.18	437.17
562.384	536.37
562.587	460.23
562.79	445.7
562.993	453.45
563.197	493.75
563.4	523.59
563.603	502.85
563.806	540.25
564.009	405.79
564.212	467.21
564.416	428.26
564.619	466.24
564.822	433.11
565.025	486
565.228	455
565.431	444.15
565.634	376.14
565.837	446.67
566.04	415.47
566.243	441.82
566.446	343.79
566.649	429.23
566.852	394.94
567.055	424.97
567.258	461.2
567.461	471.27
567.664	472.24
567.867	363.94
568.07	453.26
568.273	484.45
568.475	454.61
568.678	441.05
568.881	421.29
569.084	413.15
569.287	362.78
569.489	395.33
569.692	430.59
569.895	438.14
570.098	389.32
570.3	342.82
570.503	348.44
570.706	372.27
570.909	378.86
571.111	349.41
571.314	355.8
571.516	354.06
571.719	415.28
571.922	410.44
572.124	372.85
572.327	393.39
572.529	350.18
572.732	368.78
572.935	393.78
573.137	421.48
573.34	331.78
573.542	384.86
573.745	365.49
573.947	380.99
574.15	362.39
574.352	354.83
574.554	435.04
574.757	342.82
574.959	353.67
575.162	329.84
575.364	380.6
575.566	446.67
575.769	323.44
575.971	362.78
576.173	313.18
576.376	347.28
576.578	385.83
576.78	440.86
576.982	304.46
577.185	350.57
577.387	330.23
577.589	300.78
577.791	379.63
577.993	358.51
578.196	320.34
578.398	354.25
578.6	399.98
578.802	301.75
579.004	328.09
579.206	333.13
579.408	357.35
579.61	289.73
579.812	370.72
580.014	358.13
580.216	325.38
580.418	313.95
580.62	293.22
580.822	289.73
581.024	323.83
581.226	332.36
581.428	293.61
581.63	403.85
581.832	313.37
582.034	364.91
582.236	329.06
582.438	327.51
582.64	366.46
582.841	405.59
583.043	411.99
583.245	349.6
583.447	330.03
583.649	342.04
583.85	353.67
584.052	388.35
584.254	310.85
584.456	401.52
584.657	304.65
584.859	321.89
585.061	352.51
585.262	289.93
585.464	297.87
585.666	351.54
585.867	313.95
586.069	388.93
586.27	350.76
586.472	350.38
586.674	331
586.875	322.67
587.077	346.11
587.278	310.66
587.48	305.81
587.681	404.43
587.883	364.33
588.084	250.6
588.285	286.63
588.487	315.31
588.688	329.26
588.89	282.37
589.091	285.66
589.292	324.22
589.494	297.87
589.695	279.08
589.896	252.34
590.098	232
590.299	308.53
590.5	256.99
590.702	286.44
590.903	296.13
591.104	323.44
591.305	303.3
591.507	363.55
591.708	310.66
591.909	287.8
592.11	378.08
592.311	318.79
592.512	316.86
592.714	249.63
592.915	273.07
593.116	293.41
593.317	296.9
593.518	299.03
593.719	291.09
593.92	320.54
594.121	354.25
594.322	298.26
594.523	287.21
594.724	276.36
594.925	299.23
595.126	323.83
595.327	322.86
595.528	309.5
595.729	312.21
595.929	269.39
596.13	307.36
596.331	291.48
596.532	298.26
596.733	364.33
596.934	324.41
597.135	323.44
597.335	332.55
597.536	248.66
597.737	312.79
597.938	286.05
598.138	320.93
598.339	260.86
598.54	312.6
598.74	286.25
598.941	297.29
599.142	341.46
599.342	302.52
599.543	281.21
599.744	285.66
599.944	295.55
600.145	277.14
600.345	293.8
600.546	369.94
600.746	354.44
600.947	372.66
601.147	317.05
601.348	322.48
601.548	305.04
601.749	310.46
601.949	265.32
602.15	318.02
602.35	301.55
602.551	341.27
602.751	268.61
602.951	283.15
603.152	235.87
603.352	312.4
603.552	303.3
603.753	302.71
603.953	318.79
604.153	291.09
604.354	297.68
604.554	295.55
604.754	303.1
604.954	267.06
605.155	286.63
605.355	281.98
605.555	318.41
605.755	336.23
605.955	310.66
606.155	324.41
606.356	291.28
606.556	342.82
606.756	337.98
606.956	251.18
607.156	340.11
607.356	240.13
607.556	339.14
607.756	280.24
607.956	353.48
608.156	314.53
608.356	275.4
608.556	337.39
608.756	293.41
608.956	260.48
609.156	277.14
609.356	275.59
609.556	272.88
609.755	302.52
609.955	285.08
610.155	305.43
610.355	279.85
610.555	259.9
610.755	281.01
610.954	222.12
611.154	301.55
611.354	319.96
611.554	284.5
611.753	278.88
611.953	219.79
612.153	313.76
612.352	289.35
612.552	235.1
612.752	214.56
612.951	264.55
613.151	306.4
613.351	258.35
613.55	278.5
613.75	285.66
613.949	276.36
614.149	275.4
614.348	286.25
614.548	249.24
614.747	226.96
614.947	246.91
615.146	213.2
615.346	326.35
615.545	276.56
615.745	270.75
615.944	321.31
616.144	268.03
616.343	297.48
616.542	247.5
616.742	269
616.941	271.52
617.14	229.86
617.34	257.38
617.539	255.44
617.738	251.18
617.938	315.11
618.137	261.45
618.336	242.85
618.535	262.8
618.734	260.28
618.934	275.2
619.133	290.31
619.332	249.43
619.531	246.14
619.73	252.53
619.929	283.53
620.128	284.31
620.328	290.31
620.527	228.7
620.726	240.33
620.925	265.71
621.124	244.01
621.323	257.38
621.522	230.45
621.721	212.04
621.92	235.48
622.119	263.58
622.318	246.53
622.517	242.46
622.715	247.88
622.914	213.2
623.113	216.3
623.312	216.11
623.511	258.15
623.71	226.76
623.909	216.3
624.107	304.85
624.306	189.18
624.505	234.71
624.704	222.31
624.902	224.25
625.101	288.18
625.3	262.61
625.499	216.5
625.697	214.75
625.896	214.75
626.095	266.87
626.293	193.25
626.492	196.35
626.69	260.48
626.889	210.88
627.088	246.33
627.286	214.37
627.485	194.02
627.683	219.4
627.882	286.83
628.08	181.82
628.279	226.96
628.477	290.9
628.676	196.54
628.874	234.71
629.073	194.99
629.271	189.76
629.469	225.99
629.668	206.62
629.866	204.68
630.065	216.5
630.263	267.65
630.461	183.37
630.66	201
630.858	232
631.056	264.55
631.254	263
631.453	211.27
631.651	234.51
631.849	238.97
632.047	252.92
632.245	210.49
632.444	237.81
632.642	252.53
632.84	230.45
633.038	210.1
633.236	208.55
633.434	184.72
633.632	204.87
633.83	171.16
634.028	252.34
634.227	226.96
634.425	273.85
634.623	229.28
634.821	226.38
635.019	207.78
635.216	190.73
635.414	235.1
635.612	229.48
635.81	214.17
636.008	247.5
636.206	208.94
636.404	246.72
636.602	171.74
636.8	220.57
636.997	243.04
637.195	259.9
637.393	211.85
637.591	257.57
637.789	235.29
637.986	193.25
638.184	225.02
638.382	245.95
638.58	249.24
638.777	269.39
638.975	228.12
639.173	217.66
639.37	245.17
639.568	229.28
639.765	229.67
639.963	230.64
640.161	235.48
640.358	241.88
640.556	207.78
640.753	209.33
640.951	185.11
641.148	234.9
641.346	219.21
641.543	216.88
641.741	252.15
641.938	182.4
642.136	228.51
642.333	171.35
642.531	268.61
642.728	281.6
642.925	223.47
643.123	216.5
643.32	234.51
643.517	221.92
643.715	233.55
643.912	201.19
644.109	239.94
644.306	226.57
644.504	193.44
644.701	211.46
644.898	228.31
645.095	175.42
645.293	206.42
645.49	252.73
645.687	220.37
645.884	243.04
646.081	162.25
646.278	197.32
646.475	193.83
646.672	186.27
646.87	235.87
647.067	213.59
647.264	222.7
647.461	191.31
647.658	190.53
647.855	220.95
648.052	188.4
648.249	135.32
648.446	193.63
648.642	182.59
648.839	184.53
649.036	190.53
649.233	129.7
649.43	147.91
649.627	157.4
649.824	179.88
650.021	162.83
650.217	166.12
650.414	161.86
650.611	192.86
650.808	182.2
651.004	167.48
651.201	211.85
651.398	222.5
651.595	204.29
651.791	174.45
651.988	214.56
652.185	182.4
652.381	213.4
652.578	139.38
652.775	193.63
652.971	186.47
653.168	194.6
653.364	184.92
653.561	137.06
653.757	165.35
653.954	175.81
654.15	152.56
654.347	259.12
654.543	178.91
654.74	136.29
654.936	167.67
655.133	185.11
655.329	185.88
655.525	182.98
655.722	202.35
655.918	153.92
656.115	236.65
656.311	143.26
656.507	123.11
656.704	111.1
656.9	141.13
657.096	153.53
657.292	108
657.489	194.41
657.685	170
657.881	160.31
658.077	154.5
658.273	195.18
658.47	202.35
658.666	171.35
658.862	155.47
659.058	132.6
659.254	198.48
659.45	144.62
659.646	176
659.842	158.76
660.038	197.12
660.234	137.84
660.43	177.36
660.626	218.82
660.822	212.62
661.018	213.98
661.214	155.27
661.41	123.11
661.606	181.43
661.802	204.87
661.998	147.52
662.194	151.98
662.39	186.47
662.586	208.55
662.781	206.81
662.977	202.93
663.173	206.42
663.369	169.03
663.564	169.03
663.76	194.22
663.956	154.69
664.152	243.62
664.347	108
664.543	164.96
664.739	177.94
664.934	135.7
665.13	144.62
665.326	191.7
665.521	167.09
665.717	142.29
665.912	134.15
666.108	93.08
666.304	129.89
666.499	161.28
666.695	120.4
666.89	148.3
667.086	209.52
667.281	179.68
667.477	199.45
667.672	164.57
667.867	147.13
668.063	188.6
668.258	150.04
668.454	155.27
668.649	222.7
668.844	185.88
669.04	174.65
669.235	159.92
669.43	129.7
669.626	107.22
669.821	148.49
670.016	111.29
670.211	147.52
670.407	128.34
670.602	158.57
670.797	122.53
670.992	214.95
671.187	128.92
671.382	151.78
671.578	132.6
671.773	169.42
671.968	121.75
672.163	157.4
672.358	198.87
672.553	128.92
672.748	137.64
672.943	224.44
673.138	157.6
673.333	187.24
673.528	135.7
673.723	172.52
673.918	151.59
674.113	109.55
674.308	226.96
674.503	158.57
674.698	162.05
674.892	174.45
675.087	179.3
675.282	173.48
675.477	161.86
675.672	170.77
675.867	147.52
676.061	110.71
676.256	92.89
676.451	117.1
676.646	140.74
676.84	114.2
677.035	112.45
677.23	114
677.424	156.24
677.619	174.84
677.814	196.54
678.008	195.57
678.203	98.5
678.397	87.85
678.592	179.68
678.787	176.78
678.981	130.86
679.176	155.66
679.37	152.95
679.565	135.9
679.759	152.56
679.954	177.55
680.148	216.3
680.342	197.7
680.537	199.25
680.731	121.95
680.926	171.55
681.12	172.9
681.314	142.68
681.509	123.3
681.703	159.92
681.897	179.49
682.092	143.84
682.286	121.56
682.48	221.73
682.674	204.87
682.869	146.55
683.063	139.97
683.257	219.02
683.451	125.24
683.645	167.67
683.839	155.47
684.034	140.74
684.228	195.18
684.422	130.47
684.616	111.87
684.81	165.15
685.004	150.62
685.198	154.11
685.392	178.72
685.586	118.46
685.78	154.5
685.974	195.18
686.168	163.99
686.362	200.8
686.556	140.74
686.75	118.27
686.944	151.4
687.138	157.98
687.331	112.45
687.525	145.2
687.719	63.63
687.913	165.35
688.107	132.99
688.301	112.84
688.494	143.84
688.688	109.94
688.882	105.67
689.076	112.65
689.269	141.13
689.463	200.8
689.657	158.18
689.85	91.14
690.044	127.95
690.238	93.27
690.431	116.91
690.625	138.61
690.818	145.58
691.012	150.82
691.205	158.37
691.399	106.45
691.593	129.12
691.786	196.93
691.98	178.91
692.173	209.91
692.366	148.68
692.56	183.37
692.753	228.51
692.947	116.14
693.14	234.71
693.333	206.42
693.527	138.22
693.72	176.97
693.914	146.36
694.107	167.09
694.3	181.43
694.493	156.82
694.687	209.91
694.88	158.76
695.073	216.69
695.266	197.51
695.46	163.6
695.653	241.88
695.846	222.89
696.039	142.87
696.232	205.84
696.425	222.7
696.618	192.86
696.812	171.93
697.005	251.56
697.198	285.66
697.391	233.16
697.584	247.69
697.777	296.13
697.97	257.38
698.163	265.13
698.356	241.3
698.549	317.63
698.742	298.45
698.935	262.22
699.127	273.85
699.32	252.15
699.513	221.34
699.706	299.81
699.899	310.46
700.092	257.57
700.285	292.83
700.477	255.44
700.67	268.81
700.863	296.9
701.056	361.03
701.248	312.98
701.441	341.27
701.634	288.76
701.826	393
702.019	277.91
702.212	354.06
702.404	297.29
702.597	273.46
702.79	311.82
702.982	332.94
703.175	392.61
703.367	347.66
703.56	367.62
703.752	406.76
703.945	364.33
704.137	378.86
704.33	397.84
704.522	412.76
704.715	392.61
704.907	420.51
705.1	440.86
705.292	422.64
705.484	430.97
705.677	431.56
705.869	412.57
706.061	452.48
706.254	491.23
706.446	423.42
706.638	452.29
706.831	508.28
707.023	437.95
707.215	527.85
707.407	504.02
707.599	484.26
707.792	514.48
707.984	522.62
708.176	538.31
708.368	518.16
708.56	528.24
708.752	528.24
708.944	547.03
709.136	598.95
709.329	546.64
709.521	614.45
709.713	597.6
709.905	596.05
710.097	623.56
710.289	531.53
710.481	594.5
710.672	617.75
710.864	609.42
711.056	659.6
711.248	647.78
711.44	649.91
711.632	630.15
711.824	632.67
712.016	687.69
712.207	683.23
712.399	666.76
712.591	724.5
712.783	691.18
712.975	744.85
713.166	705.9
713.358	688.08
713.55	783.01
713.741	764.61
713.933	747.36
714.125	745.81
714.316	753.56
714.508	780.69
714.7	809.94
714.891	756.08
715.083	845.21
715.274	781.66
715.466	791.54
715.657	835.33
715.849	771.19
716.04	830.09
716.232	731.09
716.423	842.88
716.615	773.91
716.806	777.39
716.998	786.5
717.189	747.36
717.381	703.77
717.572	672.77
717.763	734.96
717.955	694.66
718.146	708.81
718.337	661.53
718.528	662.12
718.72	648.75
718.911	690.4
719.102	644.29
719.293	741.16
719.485	703
719.676	684.59
719.867	654.75
720.058	658.05
720.249	665.21
720.44	664.63
720.632	732.06
720.823	733.22
721.014	833.78
721.205	802.39
721.396	848.5
721.587	886.67
721.778	919.8
721.969	902.17
722.16	958.55
722.351	929.68
722.542	1065.11
722.733	1050.19
722.924	979.67
723.115	1012.41
723.305	1022.68
723.496	1047.28
723.687	959.32
723.878	957.58
724.069	1001.37
724.26	978.89
724.45	951.38
724.641	955.06
724.832	980.83
725.023	963.97
725.213	967.07
725.404	935.69
725.595	986.06
725.785	972.11
725.976	1008.34
726.167	997.3
726.357	996.91
726.548	1106.96
726.739	1028.3
726.929	1097.27
727.12	1104.44
727.31	1116.84
727.501	1079.64
727.691	1103.47
727.882	1135.05
728.072	1154.04
728.263	1141.83
728.453	1169.35
728.644	1178.06
728.834	1157.33
729.024	1109.48
729.215	1135.63
729.405	1184.26
729.596	1237.54
729.786	1210.23
729.976	1228.83
730.167	1241.81
730.357	1208.29
730.547	1207.13
730.737	1254.98
730.928	1297.8
731.118	1365.61
731.308	1286.37
731.498	1272.42
731.688	1350.31
731.879	1311.94
732.069	1393.51
732.259	1397.39
732.449	1421.8
732.639	1461.9
732.829	1487.28
733.019	1529.91
733.209	1562.65
733.399	1527
733.589	1610.7
733.779	1616.9
733.969	1596.75
734.159	1668.24
734.349	1694.21
734.539	1711.64
734.729	1709.71
734.919	1723.27
735.109	1764.73
735.299	1708.16
735.488	1758.92
735.678	1769.96
735.868	1749.81
736.058	1803.87
736.248	1768.8
736.437	1698.66
736.627	1758.72
736.817	1880.01
737.007	1788.76
737.196	1820.14
737.386	1822.47
737.576	1770.74
737.765	1873.42
737.955	1829.83
738.144	1914.69
738.334	1871.87
738.524	1827.31
738.713	1870.32
738.903	1912.37
739.092	1942.59
739.282	1929.03
739.471	1959.25
739.661	1941.04
739.85	1945.5
740.04	1960.22
740.229	2032.49
740.419	2020.09
740.608	2031.71
740.797	2024.93
740.987	2110.38
741.176	2048.18
741.365	2033.46
741.555	2001.68
741.744	2091.58
741.933	2057.1
742.123	2107.28
742.312	2110.57
742.501	2149.9
742.69	2152.03
742.88	2072.21
743.069	2187.68
743.258	2115.99
743.447	2155.52
743.636	2194.07
743.825	2170.82
744.014	2176.83
744.204	2195.82
744.393	2149.9
744.582	2235.73
744.771	2265.95
744.96	2180.71
745.149	2207.64
745.338	2197.37
745.527	2244.84
745.716	2213.26
745.905	2216.94
746.094	2263.44
746.283	2271.77
746.471	2286.3
746.66	2329.5
746.849	2271.77
747.038	2308.77
747.227	2227.59
747.416	2291.72
747.604	2296.37
747.793	2275.64
747.982	2272.15
748.171	2296.76
748.359	2360.12
748.548	2292.11
748.737	2281.26
748.926	2303.35
749.114	2246.19
749.303	2300.83
749.491	2314.59
749.68	2249.68
749.869	2283.78
750.057	2272.15
750.246	2231.66
750.434	2319.62
750.623	2254.91
750.811	2287.27
751	2325.43
751.188	2231.27
751.377	2300.64
751.565	2264.4
751.754	2252.59
751.942	2271.57
752.131	2331.83
752.319	2270.41
752.507	2204.92
752.696	2329.5
752.884	2333.57
753.072	2305.87
753.261	2293.08
753.449	2267.5
753.637	2283.2
753.825	2364.96
754.014	2256.07
754.202	2286.88
754.39	2303.15
754.578	2303.54
754.766	2272.93
754.955	2279.52
755.143	2356.82
755.331	2269.25
755.519	2317.49
755.707	2315.94
755.895	2285.14
756.083	2283.2
756.271	2231.27
756.459	2261.11
756.647	2339.38
756.835	2273.12
757.023	2276.61
757.211	2255.88
757.399	2230.89
757.587	2237.67
757.775	2201.63
757.963	2231.08
758.151	2248.9
758.339	2183.42
758.526	2223.72
758.714	2226.43
758.902	2138.66
759.09	2072.01
759.278	1957.12
759.465	1806.77
759.653	1516.73
759.841	1431.68
760.028	1188.14
760.216	1045.73
760.404	990.32
760.591	820.02
760.779	676.65
760.967	604.96
761.154	490.65
761.342	512.93
761.529	502.27
761.717	567.95
761.905	548.77
762.092	585.39
762.28	515.06
762.467	532.89
762.655	491.81
762.842	546.06
763.029	521.84
763.217	528.04
763.404	515.06
763.592	548.97
763.779	481.74
763.966	534.05
764.154	602.44
764.341	602.05
764.528	628.21
764.716	666.18
764.903	714.81
765.09	740.78
765.277	794.83
765.465	889.57
765.652	916.89
765.839	976.76
766.026	1077.9
766.213	1093.4
766.4	1143
766.588	1324.15
766.775	1313.49
766.962	1426.84
767.149	1438.65
767.336	1521.97
767.523	1516.73
767.71	1634.14
767.897	1666.89
768.084	1766.28
768.271	1766.67
768.458	1824.99
768.645	1853.08
768.832	1840.49
769.019	1841.84
769.206	1842.81
769.392	1896.09
769.579	1994.9
769.766	1947.05
769.953	1953.25
770.14	2031.33
770.327	1954.8
770.513	2031.33
770.7	2091.19
770.887	2008.08
771.073	2058.26
771.26	2045.47
771.447	2007.69
771.634	2009.63
771.82	2092.74
772.007	2023.19
772.193	2052.64
772.38	2082.48
772.567	2063.88
772.753	2072.4
772.94	2090.81
773.126	2088.48
773.313	2113.67
773.499	2081.12
773.686	2073.56
773.872	2063.49
774.059	2102.82
774.245	2034.04
774.432	2028.61
774.618	1959.06
774.804	2045.86
774.991	1987.35
775.177	2086.93
775.363	2011.56
775.55	2071.24
775.736	2012.92
775.922	2019.31
776.109	2022.8
776.295	1994.9
776.481	2032.3
776.667	2022.03
776.853	2008.46
777.04	2034.62
777.226	2006.33
777.412	2069.11
777.598	2011.56
777.784	2010.21
777.97	1961
778.156	2041.4
778.342	1982.89
778.528	1987.15
778.715	1949.57
778.901	1993.55
779.087	1990.45
779.272	1956.15
779.458	1951.31
779.644	1989.67
779.83	1948.4
780.016	2039.85
780.202	1993.35
780.388	1954.8
780.574	1898.22
780.76	1918.95
780.946	1908.49
781.131	1925.93
781.317	1924.57
781.503	1906.36
781.689	1909.85
781.874	2001.49
782.06	1909.27
782.246	1907.33
782.432	1912.17
782.617	1923.02
782.803	1989.09
782.989	1853.66
783.174	1909.07
783.36	1815.88
783.545	1888.34
783.731	1876.72
783.916	1823.63
784.102	1892.41
784.288	1828.09
784.473	1854.82
784.659	1827.7
784.844	1899.19
785.029	1830.41
785.215	1834.67
785.4	1784.69
785.586	1893.96
785.771	1781.97
785.956	1842.42
786.142	1793.99
786.327	1803.29
786.512	1807.16
786.698	1806.77
786.883	1753.49
787.068	1791.08
787.254	1799.6
787.439	1756.59
787.624	1756.79
787.809	1758.72
787.994	1755.82
788.18	1802.51
788.365	1714.55
788.55	1733.54
788.735	1739.16
788.92	1750.59
789.105	1707.77
789.29	1757.37
789.475	1670.76
789.66	1710.48
789.845	1667.47
790.03	1682.97
790.215	1721.33
790.4	1729.08
790.585	1730.63
790.77	1705.83
790.955	1637.44
791.14	1669.6
791.325	1762.21
791.51	1598.88
791.695	1685.1
791.879	1632.79
792.064	1624.84
792.249	1689.17
792.434	1662.43
792.618	1652.94
792.803	1686.65
792.988	1676.77
793.173	1663.79
793.357	1649.64
793.542	1641.12
793.727	1663.59
793.911	1680.64
794.096	1640.93
794.281	1677.54
794.465	1749.23
794.65	1658.94
794.834	1692.27
795.019	1725.4
795.203	1693.24
795.388	1707.58
795.572	1718.04
795.757	1708.93
795.941	1733.34
796.126	1682.19
796.31	1663.4
796.494	1692.46
796.679	1656.43
796.863	1651.78
797.048	1720.94
797.232	1672.51
797.416	1682.39
797.601	1705.83
797.785	1755.24
797.969	1753.49
798.153	1671.93
798.338	1688.01
798.522	1730.24
798.706	1745.16
798.89	1691.49
799.074	1787.79
799.258	1782.75
799.443	1725.01
799.627	1723.66
799.811	1751.75
799.995	1718.42
800.179	1697.5
800.363	1688.59
800.547	1732.76
800.731	1744.39
800.915	1685.29
801.099	1664.18
801.283	1671.93
801.467	1710.87
801.651	1693.43
801.835	1773.84
802.019	1742.84
802.202	1725.4
802.386	1676.58
802.57	1642.28
802.754	1664.76
802.938	1657.39
803.121	1671.93
803.305	1750.78
803.489	1735.09
803.673	1708.74
803.856	1705.06
804.04	1698.47
804.224	1681.23
804.407	1701.96
804.591	1693.43
804.775	1705.83
804.958	1655.26
805.142	1793.41
805.326	1698.47
805.509	1705.44
805.693	1730.05
805.876	1725.59
806.06	1707.19
806.243	1727.34
806.427	1750.39
806.61	1775
806.794	1707.19
806.977	1761.44
807.16	1716.87
807.344	1719.01
807.527	1714.94
807.71	1721.72
807.894	1708.93
808.077	1750.97
808.26	1710.09
808.444	1684.91
808.627	1770.93
808.81	1679.68
808.993	1629.3
809.177	1642.28
809.36	1643.83
809.543	1683.55
809.726	1610.7
809.909	1616.32
810.092	1607.21
810.276	1589.2
810.459	1629.88
810.642	1598.5
810.825	1591.52
811.008	1574.28
811.191	1492.71
811.374	1535.14
811.557	1582.22
811.74	1577.38
811.923	1492.32
812.106	1487.28
812.289	1463.65
812.472	1464.42
812.654	1493.68
812.837	1489.8
813.02	1401.84
813.203	1397.77
813.386	1324.73
813.569	1285.79
813.751	1325.12
813.934	1318.72
814.117	1326.09
814.3	1261.57
814.482	1229.21
814.665	1229.41
814.848	1190.85
815.03	1159.27
815.213	1132.34
815.396	1139.12
815.578	1128.66
815.761	1117.03
815.943	1138.35
816.126	1088.17
816.309	1051.16
816.491	1049.8
816.674	964.36
816.856	1037.21
817.039	1054.26
817.221	1091.85
817.403	1009.5
817.586	1047.67
817.768	1056.97
817.951	988.39
818.133	1015.32
818.315	1003.69
818.498	1046.7
818.68	1098.82
818.862	1048.45
819.045	1092.62
819.227	1064.33
819.409	1064.72
819.591	1059.49
819.774	1088.36
819.956	1066.85
820.138	1138.73
820.32	1069.95
820.502	1145.71
820.684	1177.87
820.866	1119.16
821.048	1238.32
821.231	1211.78
821.413	1209.64
821.595	1195.5
821.777	1209.84
821.959	1177.87
822.141	1241.42
822.323	1147.65
822.505	1065.88
822.686	1051.93
822.868	1076.73
823.05	926.39
823.232	954.48
823.414	911.08
823.596	971.72
823.778	926.97
823.96	965.91
824.141	953.12
824.323	960.87
824.505	1023.65
824.687	1059.1
824.868	1085.84
825.05	1157.14
825.232	1179.42
825.413	1250.33
825.595	1180.58
825.777	1139.31
825.958	1173.41
826.14	1164.7
826.321	1198.02
826.503	1172.25
826.685	1159.08
826.866	1219.53
827.048	1205.58
827.229	1152.68
827.411	1124.4
827.592	1080.03
827.773	1095.14
827.955	1080.22
828.136	1063.75
828.318	1048.06
828.499	1065.69
828.68	1041.08
828.862	1074.41
829.043	1083.32
829.224	1061.62
829.406	1027.91
829.587	1042.63
829.768	1062.78
829.949	1063.56
830.131	1084.68
830.312	1140.67
830.493	1070.73
830.674	1080.22
830.855	1051.93
831.036	1081.97
831.218	1096.88
831.399	1103.86
831.58	1054.84
831.761	1079.06
831.942	1074.22
832.123	1047.87
832.304	1026.36
832.485	1000.4
832.666	1077.9
832.847	1064.92
833.028	1077.51
833.209	1075.38
833.389	1028.88
833.57	997.1
833.751	1061.43
833.932	1093.2
834.113	1076.35
834.294	1040.5
834.475	1095.72
834.655	1115.87
834.836	1101.34
835.017	1085.45
835.198	1025.39
835.378	1069.18
835.559	1144.74
835.74	1049.03
835.92	1062.01
836.101	1063.75
836.281	1089.72
836.462	1158.88
836.643	1145.32
836.823	1136.02
837.004	1119.16
837.184	1190.27
837.365	1136.99
837.545	1151.91
837.726	1093.59
837.906	1163.34
838.087	1105.41
838.267	1110.25
838.448	1067.43
838.628	1116.84
838.808	1115.68
838.989	1156.17
839.169	1087.97
839.349	1102.11
839.53	1129.24
839.71	1160.24
839.89	1084.87
840.07	1176.13
840.251	1088.17
840.431	1157.53
840.611	1129.82
840.791	1075.57
840.971	1148.42
841.151	1109.09
841.332	1077.9
841.512	1142.22
841.692	1050.38
841.872	1129.24
842.052	1107.15
842.232	1139.31
842.412	1099.98
842.592	1084.87
842.772	1119.16
842.952	1119.55
843.132	1095.72
843.312	1094.37
843.492	1058.52
843.672	1111.22
843.851	1029.46
844.031	1087.39
844.211	1091.27
844.391	1040.7
844.571	1108.9
844.751	1092.23
844.93	1074.02
845.11	1031.78
845.29	1076.93
845.47	1123.81
845.649	1107.35
845.829	1116.65
846.009	1065.5
846.188	1079.06
846.368	1087.97
846.547	1079.06
846.727	1116.06
846.907	1045.35
847.086	1078.87
847.266	1112.19
847.445	1059.68
847.625	1047.87
847.804	1067.43
847.984	1060.46
848.163	1037.98
848.343	1045.93
848.522	1040.31
848.701	1085.65
848.881	1047.48
849.06	1050.58
849.239	1064.33
849.419	1048.06
849.598	1009.89
849.777	986.84
849.957	998.07
850.136	950.22
850.315	953.7
850.494	943.24
850.674	958.16
850.853	1024.62
851.032	977.54
851.211	1038.18
851.39	992.84
851.569	946.73
851.748	951.19
851.927	1025
852.107	993.42
852.286	943.82
852.465	928.13
852.644	1032.37
852.823	969.59
853.002	962.04
853.181	986.25
853.359	997.3
853.538	926.19
853.717	1004.85
853.896	924.64
854.075	887.44
854.254	857.02
854.433	834.16
854.611	859.74
854.79	839.39
854.969	877.17
855.148	861.67
855.327	866.13
855.505	876.01
855.684	861.67
855.863	903.72
856.041	871.36
856.22	902.17
856.399	849.08
856.577	958.55
856.756	912.44
856.934	1032.56
857.113	1052.13
857.291	947.31
857.47	901.59
857.648	951.38
857.827	931.42
858.005	962.62
858.184	903.52
858.362	986.06
858.541	974.44
858.719	953.12
858.898	910.31
859.076	907.59
859.254	987.42
859.433	913.41
859.611	919.22
859.789	863.42
859.967	964.94
860.146	1004.27
860.324	906.82
860.502	905.66
860.68	856.64
860.859	886.47
861.037	874.46
861.215	917.28
861.393	887.83
861.571	916.89
861.749	875.04
861.927	932.97
862.105	907.4
862.283	897.52
862.461	855.47
862.639	849.47
862.817	877.56
862.995	874.85
863.173	869.04
863.351	851.02
863.529	896.36
863.707	923.48
863.885	857.99
864.063	811.3
864.241	848.31
864.418	919.61
864.596	862.26
864.774	818.66
864.952	829.9
865.129	877.56
865.307	840.75
865.485	784.95
865.663	871.56
865.84	797.74
866.018	812.08
866.196	706.48
866.373	752.59
866.551	748.14
866.728	680.71
866.906	748.72
867.084	760.15
867.261	791.15
867.439	771.39
867.616	820.99
867.794	804.13
867.971	808.2
868.149	822.34
868.326	866.52
868.503	829.9
868.681	805.49
868.858	813.24
869.035	772.55
869.213	811.49
869.39	800.64
869.567	830.29
869.745	768.09
869.922	818.08
870.099	813.43
870.276	843.07
870.454	802.19
870.631	812.85
870.808	814.21
870.985	839.78
871.162	822.34
871.339	792.31
871.517	767.32
871.694	781.46
871.871	802.58
872.048	766.35
872.225	781.27
872.402	816.14
872.579	753.95
872.756	793.09
872.933	744.46
873.11	753.95
873.287	790.76
873.463	771.58
873.64	762.28
873.817	793.67
873.994	770.61
874.171	757.83
874.348	755.31
874.524	719.46
874.701	743.49
874.878	706.87
875.055	750.08
875.231	740.39
875.408	758.79
875.585	684.59
875.762	772.55
875.938	744.26
876.115	717.91
876.291	739.42
876.468	739.81
876.645	658.63
876.821	718.5
876.998	732.83
877.174	739.03
877.351	708.03
877.527	708.61
877.704	735.35
877.88	709
878.057	692.34
878.233	743.3
878.409	699.51
878.586	727.02
878.762	704.16
878.938	686.33
879.115	638.28
879.291	727.8
879.467	663.86
879.644	668.12
879.82	705.13
879.996	666.18
880.172	661.73
880.349	682.65
880.525	705.71
880.701	627.05
880.877	638.28
881.053	680.33
881.229	672
881.405	729.15
881.581	643.13
881.757	653.2
881.933	689.82
882.109	708.23
882.285	659.02
882.461	624.53
882.637	660.37
882.813	628.6
882.989	666.96
883.165	697.18
883.341	637.51
883.517	685.56
883.693	694.66
883.869	698.35
884.044	635.38
884.22	688.66
884.396	709.58
884.572	674.51
884.747	711.71
884.923	686.91
885.099	691.76
885.275	717.91
885.45	653.78
885.626	645.45
885.801	647.39
885.977	649.91
886.153	617.75
886.328	673.74
886.504	652.04
886.679	688.85
886.855	603.6
887.03	665.02
887.206	714.23
887.381	640.22
887.557	664.44
887.732	675.48
887.908	689.24
888.083	690.79
888.258	635.18
888.434	642.93
888.609	662.89
888.784	703.96
888.96	653.2
889.135	628.6
889.31	664.05
889.485	663.66
889.661	654.56
889.836	695.63
890.011	670.25
890.186	666.18
890.361	626.85
890.537	662.89
890.712	660.76
890.887	646.62
891.062	673.35
891.237	714.04
891.412	636.93
891.587	680.52
891.762	690.01
891.937	694.86
892.112	643.71
892.287	637.32
892.462	606.9
892.637	565.63
892.812	590.82
892.987	615.62
893.161	610.77
893.336	604.96
893.511	617.75
893.686	611.74
893.861	594.88
894.035	607.28
894.21	598.18
894.385	515.84
894.56	578.22
894.734	533.27
894.909	502.66
895.084	533.85
895.258	537.92
895.433	575.32
895.608	524.36
895.782	465.27
895.957	498.79
896.131	517.77
896.306	443.76
896.48	462.94
896.655	476.31
896.829	446.28
897.004	425.74
897.178	453.64
897.353	433.88
897.527	475.34
897.701	446.47
897.876	416.25
898.05	478.64
898.224	445.31
898.399	501.11
898.573	442.02
898.747	353.86
898.921	400.56
899.096	351.54
899.27	344.37
899.444	351.34
899.618	359.87
899.792	369.56
899.967	367.81
900.141	455.19
900.315	334.68
900.489	355.03
900.663	394.74
900.837	367.43
901.011	330.81
901.185	461.97
901.359	394.55
901.533	403.27
901.707	395.13
901.881	382.34
902.055	317.44
902.229	356.58
902.403	466.82
902.576	368.2
902.75	406.37
902.924	500.53
903.098	427.68
903.272	467.01
903.446	504.02
903.619	435.62
903.793	504.4
903.967	435.62
904.14	494.14
904.314	487.16
904.488	494.91
904.661	505.57
904.835	475.34
905.009	496.65
905.182	546.84
905.356	505.37
905.529	488.52
905.703	466.43
905.876	467.21
906.05	438.14
906.223	434.85
906.397	389.51
906.57	400.56
906.744	369.36
906.917	366.07
907.09	371.49
907.264	372.85
907.437	366.46
907.61	322.28
907.784	347.47
907.957	366.26
908.13	340.11
908.304	366.26
908.477	335.84
908.65	343.21
908.823	312.98
908.996	379.63
909.17	345.92
909.343	336.43
909.516	377.31
909.689	330.42
909.862	327.9
910.035	351.34
910.208	341.27
910.381	317.44
910.554	401.91
910.727	358.71
910.9	315.11
911.073	296.13
911.246	367.81
911.419	354.64
911.592	356.38
911.765	321.89
911.938	326.35
912.11	322.67
912.283	342.82
912.456	365.49
912.629	366.84
912.802	312.4
912.974	274.04
913.147	282.76
913.32	238.78
913.493	268.61
913.665	266.68
913.838	285.28
914.01	282.56
914.183	252.34
914.356	281.98
914.528	313.56
914.701	314.34
914.873	334.49
915.046	306.78
915.218	254.66
915.391	215.72
915.563	227.35
915.736	265.9
915.908	336.81
916.081	316.66
916.253	244.2
916.425	291.48
916.598	279.27
916.77	273.65
916.942	245.75
917.115	207.39
917.287	283.34
917.459	284.7
917.632	262.8
917.804	189.95
917.976	293.03
918.148	262.61
918.32	272.49
918.493	298.84
918.665	329.26
918.837	287.8
919.009	339.91
919.181	305.62
919.353	326.74
919.525	286.05
919.697	296.71
919.869	300.97
920.041	343.79
920.213	409.66
920.385	301.75
920.557	294.96
920.729	301.55
920.901	309.5
921.073	304.26
921.244	301.75
921.416	339.91
921.588	307.75
921.76	283.15
921.932	352.89
922.103	301.94
922.275	313.95
922.447	336.04
922.619	273.85
922.79	286.83
922.962	268.61
923.134	315.69
923.305	260.86
923.477	240.71
923.648	242.85
923.82	264.74
923.991	209.91
924.163	205.07
924.335	252.73
924.506	243.81
924.677	287.21
924.849	234.51
925.02	264.16
925.192	286.25
925.363	248.85
925.535	255.83
925.706	221.92
925.877	330.23
926.049	248.66
926.22	257.96
926.391	269.97
926.562	265.13
926.734	239.16
926.905	282.95
927.076	213.98
927.247	241.49
927.419	193.05
927.59	210.1
927.761	208.75
927.932	194.02
928.103	217.08
928.274	190.15
928.445	165.54
928.616	194.22
928.787	188.21
928.958	215.72
929.129	225.6
929.3	196.35
929.471	151.2
929.642	107.42
929.813	84.36
929.984	158.95
930.155	102.57
930.326	160.31
930.496	118.07
930.667	77
930.838	134.93
931.009	91.92
931.18	88.43
931.35	83.39
931.521	82.81
931.692	47.94
931.863	4.34
932.033	83
932.204	74.29
932.374	68.28
932.545	62.85
932.716	114.97
932.886	76.03
933.057	33.41
933.227	52.59
933.398	112.45
933.568	27.21
933.739	-13.09
933.909	21.59
934.08	86.49
934.25	-16.39
934.421	21.78
934.591	52.2
934.761	3.76
934.932	-32.28
935.102	33.79
935.272	2.21
935.443	27.79
935.613	-1.86
935.783	46
935.953	-0.31
936.123	135.32
936.294	-27.82
936.464	14.03
936.634	31.08
936.804	-1.86
936.974	-20.46
937.144	25.27
937.314	27.21
937.484	-1.66
937.655	0.66
937.825	72.93
937.995	13.06
938.165	46
938.334	8.8
938.504	41.54
938.674	-14.45
938.844	26.24
939.014	67.5
939.184	45.03
939.354	88.82
939.524	81.84
939.694	22.36
939.863	37.67
940.033	95.6
940.203	95.4
940.373	53.94
940.542	107.03
940.712	46.58
940.882	97.73
941.051	95.4
941.221	80.49
941.391	86.69
941.56	37.28
941.73	30.31
941.899	130.28
942.069	33.21
942.238	70.02
942.408	27.21
942.577	94.24
942.747	60.14
942.916	15
943.086	27.01
943.255	72.54
943.425	70.8
943.594	41.16
943.763	5.31
943.933	15
944.102	-39.44
944.271	32.05
944.441	59.37
944.61	33.41
944.779	52.78
944.948	110.32
945.117	0.66
945.287	61.3
945.456	-17.55
945.625	11.51
945.794	66.54
945.963	23.52
946.132	60.53
946.301	40.96
946.47	34.76
946.639	-3.99
946.808	15
946.977	41.93
947.146	77.97
947.315	42.12
947.484	52.59
947.653	23.33
947.822	31.86
947.991	11.71
948.16	96.37
948.329	77.58
948.498	21.2
948.666	42.12
948.835	69.64
949.004	-11.93
949.173	-1.08
949.341	48.13
949.51	55.3
949.679	60.53
949.847	55.69
950.016	110.9
950.185	103.15
950.353	31.27
950.522	48.91
950.69	85.91
950.859	3.76
951.028	75.25
951.196	57.62
951.365	5.12
951.533	55.69
951.701	76.61
951.87	73.9
952.038	17.52
952.207	19.26
952.375	102.77
952.543	28.56
952.712	55.3
952.88	21.97
953.048	95.6
953.217	37.47
953.385	33.02
953.553	57.24
953.721	15
953.89	37.67
954.058	7.06
954.226	32.24
954.394	34.37
954.562	-2.63
954.73	3.96
954.898	46.97
955.067	58.79
955.235	44.06
955.403	83.78
955.571	109.55
955.739	56.46
955.907	-6.89
956.075	43.29
956.243	34.76
956.41	50.84
956.578	3.76
956.746	-29.37
956.914	46.58
957.082	43.67
957.25	29.92
957.418	4.34
957.585	53.17
957.753	89.4
957.921	10.74
958.089	33.99
958.256	34.57
958.424	57.43
958.592	51.42
958.759	11.51
958.927	53.75
959.095	32.63
959.262	48.52
959.43	55.1
959.597	25.66
959.765	56.65
959.932	16.36
960.1	44.26
960.267	26.04
960.435	38.25
960.602	65.95
960.77	41.93
960.937	9.38
961.104	45.42
961.272	-6.7
961.439	23.14
961.606	62.27
961.774	82.81
961.941	30.5
962.108	51.04
962.275	19.84
962.443	83.2
962.61	58.01
962.777	102.57
962.944	97.92
963.111	56.85
963.278	77.19
963.446	42.71
963.613	74.09
963.78	57.04
963.947	67.89
964.114	38.64
964.281	132.6
964.448	74.09
964.615	40.57
964.782	58.98
964.949	75.06
965.116	60.34
965.282	114.97
965.449	36.89
965.616	23.33
965.783	85.72
965.95	73.9
966.117	21.01
966.283	57.04
966.45	68.47
966.617	86.49
966.784	84.55
966.95	98.31
967.117	70.8
967.284	33.6
967.45	47.36
967.617	112.45
967.784	93.27
967.95	105.87
968.117	70.99
968.283	95.79
968.45	131.83
968.616	77.77
968.783	92.3
968.949	80.1
969.116	96.37
969.282	66.54
969.449	79.71
969.615	71.96
969.781	38.06
969.948	80.68
970.114	43.87
970.28	124.08
970.447	53.17
970.613	119.82
970.779	59.17
970.945	90.17
971.112	80.1
971.278	70.8
971.444	55.88
971.61	108.58
971.776	44.64
971.942	70.02
972.108	81.84
972.275	58.79
972.441	70.22
972.607	137.45
972.773	47.36
972.939	78.16
973.105	70.22
973.271	42.32
973.437	54.91
973.602	24.3
973.768	64.99
973.934	70.22
974.1	97.34
974.266	-3.79
974.432	63.82
974.598	52.97
974.763	113.42
974.929	34.18
975.095	87.85
975.261	26.24
975.426	56.85
975.592	32.82
975.758	105.48
975.923	12.67
976.089	43.29
976.255	94.82
976.42	76.22
976.586	48.71
976.751	62.66
976.917	142.68
977.082	98.12
977.248	16.94
977.413	-12.13
977.579	32.82
977.744	80.49
977.91	21.97
978.075	59.95
978.24	69.64
978.406	56.85
978.571	55.3
978.736	24.88
978.902	80.68
979.067	32.82
979.232	-6.51
979.397	54.91
979.563	114.78
979.728	20.62
979.893	32.05
980.058	32.63
980.223	78.35
980.388	41.16
980.554	68.86
980.719	20.04
980.884	86.49
981.049	73.51
981.214	12.29
981.379	77.19
981.544	27.98
981.709	47.74
981.874	15.19
982.039	69.44
982.204	80.68
982.368	78.55
982.533	20.81
982.698	110.9
982.863	104.7
983.028	44.45
983.193	64.6
983.357	59.75
983.522	77.58
983.687	16.74
983.852	43.09
984.016	48.32
984.181	58.79
984.346	75.84
984.51	81.84
984.675	72.54
984.839	69.83
985.004	67.89
985.168	94.05
985.333	80.87
985.498	61.3
985.662	66.73
985.827	51.62
985.991	24.3
986.155	32.44
986.32	68.67
986.484	129.7
986.649	72.93
986.813	-0.5
986.977	77.58
987.142	89.4
987.306	12.29
987.47	28.37
987.634	82.04
987.799	67.7
987.963	37.09
988.127	77.77
988.291	106.06
988.455	52.59
988.62	35.34
988.784	83.59
988.948	80.1
989.112	26.82
989.276	78.16
989.44	27.01
989.604	53.75
989.768	45.61
989.932	124.47
990.096	26.82
990.26	13.06
990.424	36.31
990.588	35.92
990.752	133.19
990.915	61.69
991.079	36.51
991.243	42.32
991.407	56.27
991.571	22.36
991.734	53.17
991.898	78.35
992.062	132.22
992.226	36.31
992.389	20.62
992.553	23.33
992.717	47.36
992.88	67.12
993.044	62.08
993.207	43.29
993.371	77.19
993.535	57.24
993.698	64.21
993.862	60.92
994.025	109.55
994.189	56.46
994.352	51.62
994.515	99.86
994.679	106.84
994.842	65.76
995.006	48.52
995.169	23.91
995.332	5.51
995.496	81.84
995.659	2.99
995.822	54.52
995.985	46.58
996.149	73.32
996.312	39.02
996.475	100.44
996.638	7.83
996.801	91.34
996.964	108.58
997.128	87.85
997.291	26.82
997.454	59.37
997.617	8.61
997.78	67.5
997.943	44.26
998.106	86.1
998.269	38.44
998.432	49.1
998.595	59.95
998.758	-5.73
998.92	23.52
999.083	21.39
999.246	66.73
999.409	22.36
999.572	16.74
999.735	24.69
999.897	41.93
1000.06	11.71
1000.223	15.97
1000.386	53.94
1000.548	49.68
1000.711	81.65
1000.874	46.77
1001.036	-1.86
1001.199	75.84
1001.361	28.76
1001.524	56.27
1001.687	61.3
1001.849	-3.02
1002.012	41.74
1002.174	84.36
1002.337	53.94
1002.499	48.13
1002.661	78.55
1002.824	-11.16
1002.986	19.84
1003.149	37.67
1003.311	-2.44
1003.473	100.25
1003.636	18.29
1003.798	54.91
1003.96	33.41
1004.123	20.23
1004.285	14.61
1004.447	58.01
1004.609	41.54
1004.771	82.23
1004.933	-16.39
1005.096	3.18
1005.258	-5.15
1005.42	14.81
1005.582	58.79
1005.744	43.29
1005.906	-16.19
1006.068	32.44
1006.23	-2.63
1006.392	-22.01
1006.554	-2.63
1006.716	85.91
1006.878	52.97
1007.04	11.9
1007.202	37.28
1007.363	29.92
1007.525	53.36
1007.687	64.4
1007.849	69.05
1008.011	4.54
1008.172	-15.03
1008.334	6.86
1008.496	51.23
1008.658	-23.56
1008.819	24.69
1008.981	2.6
1009.143	-15.61
1009.304	17.91
1009.466	42.71
1009.627	73.7
1009.789	101.8
1009.95	42.71
1010.112	-3.99
1010.273	43.29
1010.435	-0.5
1010.596	16.16
1010.758	18.87
1010.919	8.02
1011.081	0.47
1011.242	22.56
1011.403	24.11
1011.565	32.24
1011.726	34.18
1011.887	-3.99
1012.049	10.35
1012.21	53.94
1012.371	70.99
1012.532	-55.14
1012.693	14.22
1012.855	13.06
1013.016	32.82
1013.177	39.02
1013.338	21.2
1013.499	75.64
1013.66	32.44
1013.821	47.74
1013.982	47.55
1014.143	21.01
1014.304	-5.34
1014.465	43.87
1014.626	28.95
1014.787	10.74
1014.948	92.89
1015.109	-37.89
1015.27	56.27
1015.431	14.22
1015.592	-6.7
1015.752	75.64
1015.913	31.66
1016.074	42.71
1016.235	20.04
1016.395	39.8
1016.556	2.79
1016.717	24.11
1016.877	39.99
1017.038	-10.58
1017.199	7.06
1017.359	26.24
1017.52	32.82
1017.681	-5.93
1017.841	19.46
1018.002	2.21
1018.162	9.57
1018.323	89.01
1018.483	20.81
1018.644	5.7
1018.804	-31.89
1018.964	-12.32
1019.125	28.95
1019.285	27.59
1019.446	-2.63
1019.606	-16
1019.766	-29.18
1019.926	36.12
1020.087	4.34
1020.247	-7.48
1020.407	30.89
1020.567	50.26
1020.728	6.67
1020.888	2.21
1021.048	2.41
1021.208	-14.84
1021.368	5.7
1021.528	43.87
1021.688	27.98
1021.848	25.07
1022.008	21.39
1022.168	-13.09
1022.328	22.56
1022.488	32.44
1022.648	15.97
1022.808	52.2
1022.968	41.93
1023.128	-0.31
1023.288	-9.41
1023.448	-11.93
1023.608	37.47
1023.767	32.24
1023.927	9.57
1024.087	-22.98
1024.247	-37.31
1024.406	17.52
1024.566	-28.79
1024.726	-31.89
1024.885	17.52
1025.045	16.74
1025.205	3.37
1025.364	17.13
1025.524	4.34
1025.683	5.51
1025.843	7.64
1026.003	29.34
1026.162	69.83
1026.321	35.92
1026.481	27.79
1026.64	28.37
1026.8	20.62
1026.959	-12.71
1027.119	23.14
1027.278	4.15
1027.437	-22.2
1027.597	26.43
1027.756	25.46
1027.915	17.32
1028.074	22.94
1028.234	-10.38
1028.393	-2.24
1028.552	-14.45
1028.711	-53.01
1028.87	36.51
1029.03	-52.62
1029.189	9.57
1029.348	-38.86
1029.507	-14.06
1029.666	-13.09
1029.825	-16.58
1029.984	-7.28
1030.143	21.78
1030.302	-6.31
1030.461	-34.99
1030.62	-16.39
1030.779	33.21
1030.938	-9.8
1031.097	-32.28
1031.255	35.73
1031.414	54.72
1031.573	51.62
1031.732	-43.51
1031.891	-2.83
1032.049	44.06
1032.208	35.73
1032.367	-28.98
1032.525	-13.29
1032.684	-12.13
1032.843	16.16
1033.001	-59.01
1033.16	138.22
1033.319	17.32
1033.477	43.29
1033.636	-3.41
1033.794	-31.5
1033.953	27.4
1034.111	44.84
1034.27	-7.28
1034.428	36.89
1034.587	-6.12
1034.745	16.94
1034.903	12.67
1035.062	27.4
1035.22	-33.83
1035.378	29.34
1035.537	-14.45
1035.695	16.16
1035.853	-3.99
1036.011	21.01
1036.17	28.17
1036.328	-57.07
1036.486	14.42
1036.644	26.04
1036.802	-90.21
1036.96	-34.79
1037.119	-13.68
1037.277	-20.07
1037.435	-28.98
1037.593	-31.11
1037.751	31.27
1037.909	34.37
1038.067	34.37
