Data from oakcork_FLMT105791__283__17-34-29-052.txt Node

Date: Mon Mar 20 17:34:29 GMT 2023
User: antho
Spectrometer: FLMT10579
Trigger mode: 0
Integration Time (sec): 1.000000E-1
Scans to average: 10
Electric dark correction enabled: true
Nonlinearity correction enabled: false
Boxcar width: 0
XAxis mode: Wavelengths
Number of Pixels in Spectrum: 3648
>>>>>Begin Spectral Data<<<<<
345.248	-150.64
345.464	-150.64
345.681	-150.64
345.898	-152.38
346.114	-133.2
346.331	-26.45
346.548	43.11
346.764	-17.53
346.981	-4.75
347.197	-3.58
347.414	20.83
347.631	-42.53
347.847	60.93
348.064	24.32
348.28	-6.49
348.497	-35.36
348.713	-12.5
348.93	25.48
349.146	31.87
349.363	0.48
349.579	-15.02
349.796	17.92
350.012	14.63
350.229	23.54
350.445	32.07
350.661	-4.36
350.878	5.72
351.094	0.87
351.311	29.55
351.527	23.35
351.743	-17.15
351.96	23.35
352.176	50.66
352.392	-1.45
352.609	33.42
352.825	0.29
353.041	-4.75
353.257	14.05
353.474	4.94
353.69	12.88
353.906	21.41
354.122	-21.99
354.339	60.16
354.555	-3.97
354.771	-8.04
354.987	54.73
355.203	55.12
355.42	0.68
355.636	-2.81
355.852	-15.79
356.068	9.01
356.284	-38.65
356.5	71.4
356.716	18.5
356.932	18.31
357.148	44.27
357.364	4.94
357.58	45.63
357.796	28.38
358.012	20.83
358.228	19.28
358.444	-40.98
358.66	47.18
358.876	26.83
359.092	-41.17
359.308	34.97
359.524	23.15
359.74	3.39
359.956	14.43
360.172	35.75
360.388	38.46
360.604	-7.07
360.819	98.13
361.035	18.31
361.251	20.83
361.467	-10.75
361.683	21.22
361.898	15.02
362.114	46.79
362.33	31.87
362.546	31.29
362.762	4.94
362.977	5.72
363.193	-27.22
363.409	37.1
363.624	-40.2
363.84	-18.5
364.056	-0.68
364.271	12.5
364.487	17.73
364.703	11.53
364.918	-13.85
365.134	-9.98
365.35	-25.87
365.565	78.95
365.781	30.9
365.996	23.54
366.212	36.33
366.427	17.15
366.643	8.04
366.858	-7.27
367.074	-21.6
367.289	42.92
367.505	83.21
367.72	-33.23
367.936	8.04
368.151	24.7
368.367	45.05
368.582	24.51
368.798	-8.82
369.013	47.95
369.228	21.41
369.444	25.28
369.659	54.93
369.874	26.45
370.09	44.66
370.305	-44.85
370.52	-33.62
370.736	83.8
370.951	-2.42
371.166	59
371.381	56.86
371.597	53.57
371.812	-10.95
372.027	-27.22
372.242	-4.94
372.458	92.9
372.673	27.42
372.888	20.05
373.103	29.74
373.318	84.18
373.533	37.3
373.749	47.76
373.964	4.94
374.179	53.38
374.394	-5.91
374.609	57.25
374.824	-15.98
375.039	45.82
375.254	2.23
375.469	47.18
375.684	32.65
375.899	58.03
376.114	17.92
376.329	33.03
376.544	67.91
376.759	57.25
376.974	-19.08
377.189	-6.3
377.404	11.14
377.619	55.12
377.834	-24.9
378.049	-16.18
378.264	5.91
378.478	39.62
378.693	-4.94
378.908	21.41
379.123	12.88
379.338	56.86
379.553	32.45
379.767	30.32
379.982	20.44
380.197	9.59
380.412	16.57
380.626	49.11
380.841	85.73
381.056	24.32
381.271	92.32
381.485	-13.08
381.7	2.81
381.915	31.1
382.129	-3.2
382.344	49.31
382.559	-3.2
382.773	54.73
382.988	-14.43
383.202	28.77
383.417	3.39
383.632	106.46
383.846	15.79
384.061	22.18
384.275	-6.88
384.49	31.68
384.704	58.8
384.919	-0.87
385.133	7.07
385.348	37.88
385.562	-20.83
385.777	58.41
385.991	-9.2
386.206	-0.48
386.42	17.15
386.634	47.18
386.849	69.46
387.063	64.23
387.277	-22.38
387.492	17.15
387.706	-22.77
387.92	-11.14
388.135	62.87
388.349	38.27
388.563	34.97
388.778	22.18
388.992	51.25
389.206	58.8
389.42	67.13
389.635	20.25
389.849	30.32
390.063	55.31
390.277	7.07
390.491	74.5
390.706	44.66
390.92	41.17
391.134	19.47
391.348	46.6
391.562	-22.77
391.776	30.32
391.99	-3
392.205	68.88
392.419	2.81
392.633	16.95
392.847	73.14
393.061	-7.65
393.275	61.51
393.489	32.45
393.703	39.23
393.917	79.92
394.131	9.59
394.345	51.83
394.559	52.8
394.773	31.87
394.986	39.04
395.2	-5.13
395.414	65.2
395.628	-2.42
395.842	26.25
396.056	26.25
396.27	-18.31
396.484	37.88
396.697	19.67
396.911	60.16
397.125	47.56
397.339	71.4
397.553	70.81
397.766	73.91
397.98	68.49
398.194	72.75
398.408	-3.2
398.621	58.61
398.835	56.09
399.049	70.62
399.262	70.43
399.476	51.63
399.69	73.91
399.903	90.38
400.117	30.9
400.331	40.2
400.544	18.5
400.758	115.57
400.971	59.58
401.185	61.9
401.398	12.3
401.612	89.22
401.826	59.96
402.039	71.78
402.253	14.43
402.466	73.53
402.68	34.58
402.893	59.19
403.106	57.25
403.32	43.88
403.533	53.76
403.747	55.51
403.96	78.37
404.174	62.1
404.387	11.33
404.6	45.05
404.814	105.11
405.027	54.15
405.24	46.6
405.454	20.25
405.667	111.89
405.88	-13.27
406.094	62.87
406.307	45.05
406.52	42.14
406.733	59.38
406.947	13.47
407.16	104.91
407.373	98.71
407.586	35.75
407.799	30.13
408.012	66.16
408.226	47.18
408.439	82.25
408.652	4.55
408.865	76.43
409.078	69.65
409.291	55.7
409.504	22.38
409.717	63.65
409.93	56.86
410.143	64.23
410.357	16.95
410.57	8.23
410.783	27.03
410.996	90
411.209	52.99
411.421	74.69
411.634	43.88
411.847	34.78
412.06	52.8
412.273	60.93
412.486	51.44
412.699	135.53
412.912	51.25
413.125	76.43
413.338	58.03
413.55	96.97
413.763	34.2
413.976	83.6
414.189	43.5
414.402	53.18
414.615	113.83
414.827	25.09
415.04	82.25
415.253	65.97
415.466	75.46
415.678	112.86
415.891	48.53
416.104	62.29
416.316	39.82
416.529	43.69
416.742	71.01
416.954	91.74
417.167	54.54
417.38	43.88
417.592	92.9
417.805	33.42
418.017	21.6
418.23	94.84
418.442	60.35
418.655	40.59
418.868	53.76
419.08	104.14
419.293	104.14
419.505	69.07
419.718	85.15
419.93	88.45
420.142	56.09
420.355	83.99
420.567	116.15
420.78	101.81
420.992	65.58
421.205	110.53
421.417	38.85
421.629	82.83
421.842	41.37
422.054	8.04
422.266	78.95
422.479	114.41
422.691	34.2
422.903	73.91
423.115	41.56
423.328	45.24
423.54	73.91
423.752	55.7
423.964	55.7
424.177	65.2
424.389	38.65
424.601	164.01
424.813	83.41
425.025	100.65
425.238	109.76
425.45	56.48
425.662	63.26
425.874	332.57
426.086	81.08
426.298	78.37
426.51	81.86
426.722	65.58
426.934	46.01
427.146	107.05
427.358	26.83
427.57	119.25
427.782	62.68
427.994	97.75
428.206	50.28
428.418	39.62
428.63	93.68
428.842	97.36
429.054	71.2
429.266	104.33
429.478	62.68
429.69	80.5
429.902	46.79
430.114	96.2
430.325	81.86
430.537	41.37
430.749	66.75
430.961	6.88
431.173	68.88
431.384	102.2
431.596	10.56
431.808	35.17
432.02	94.45
432.231	99.88
432.443	106.66
432.655	79.73
432.867	54.15
433.078	78.76
433.29	126.81
433.502	110.15
433.713	97.75
433.925	73.33
434.136	121.38
434.348	3.78
434.56	13.66
434.771	146.18
434.983	39.62
435.194	47.18
435.406	60.74
435.617	113.63
435.829	120.8
436.04	94.65
436.252	101.62
436.463	109.95
436.675	128.16
436.886	100.85
437.098	65.2
437.309	127
437.521	119.64
437.732	106.46
437.943	77.6
438.155	101.23
438.366	34.78
438.578	158
438.789	85.54
439	127.2
439.211	83.99
439.423	104.14
439.634	100.07
439.845	95.03
440.057	95.42
440.268	124.29
440.479	90.96
440.69	122.55
440.902	107.63
441.113	95.23
441.324	92.71
441.535	103.75
441.746	145.79
441.957	65
442.168	82.25
442.38	102.4
442.591	122.55
442.802	66.75
443.013	58.03
443.224	110.53
443.435	103.17
443.646	77.21
443.857	94.84
444.068	83.6
444.279	79.73
444.49	177.57
444.701	89.61
444.912	186.09
445.123	125.65
445.334	118.48
445.545	100.26
445.756	108.79
445.967	66.16
446.178	120.41
446.388	152.77
446.599	114.41
446.81	117.9
447.021	104.14
447.232	160.91
447.443	124.68
447.653	95.03
447.864	157.61
448.075	97.94
448.286	144.24
448.496	97.36
448.707	153.16
448.918	76.43
449.129	204.31
449.339	45.82
449.55	118.28
449.761	114.6
449.971	154.71
450.182	86.9
450.393	150.83
450.603	99.88
450.814	154.13
451.024	133.39
451.235	166.33
451.446	173.31
451.656	179.89
451.867	81.66
452.077	129.91
452.288	171.76
452.498	161.29
452.709	113.05
452.919	128.94
453.13	108.6
453.34	148.51
453.55	120.41
453.761	144.05
453.971	106.85
454.182	156.06
454.392	148.12
454.602	186.68
454.813	112.66
455.023	175.63
455.233	82.25
455.444	119.45
455.654	102.98
455.864	121.77
456.075	109.76
456.285	97.94
456.495	127.58
456.705	141.73
456.916	156.06
457.126	160.52
457.336	121
457.546	67.91
457.756	101.43
457.967	162.46
458.177	132.43
458.387	139.21
458.597	115.18
458.807	104.53
459.017	114.41
459.227	116.15
459.437	105.3
459.647	138.63
459.857	141.14
460.068	95.81
460.278	155.09
460.488	168.46
460.698	176.21
460.908	122.35
461.117	88.25
461.327	131.07
461.537	126.23
461.747	163.81
461.957	134.17
462.167	198.49
462.377	147.34
462.587	141.34
462.797	177.96
463.007	106.27
463.216	141.73
463.426	168.08
463.636	152.58
463.846	90
464.056	109.18
464.265	162.07
464.475	93.48
464.685	128.36
464.895	157.81
465.104	145.79
465.314	177.57
465.524	126.81
465.733	112.66
465.943	198.49
466.153	198.69
466.362	159.55
466.572	154.13
466.782	139.98
466.991	136.11
467.201	222.13
467.41	115.38
467.62	161.88
467.829	135.53
468.039	168.66
468.249	172.92
468.458	145.41
468.668	179.7
468.877	181.06
469.086	195.98
469.296	166.72
469.505	129.33
469.715	231.24
469.924	171.95
470.134	178.93
470.343	195.39
470.552	156.84
470.762	150.83
470.971	138.24
471.18	167.49
471.39	156.26
471.599	136.49
471.808	170.98
472.018	127.58
472.227	184.54
472.436	190.36
472.645	158.19
472.855	143.86
473.064	222.52
473.273	158.19
473.482	185.9
473.691	196.94
473.901	215.16
474.11	162.46
474.319	244.41
474.528	169.04
474.737	212.64
474.946	193.46
475.155	188.23
475.364	231.82
475.573	188.81
475.783	181.83
475.992	194.43
476.201	213.99
476.41	181.25
476.619	154.13
476.828	187.84
477.037	189.39
477.245	199.46
477.454	252.94
477.663	194.81
477.872	177.38
478.081	219.03
478.29	145.21
478.499	266.89
478.708	206.24
478.917	255.84
479.125	198.69
479.334	183.77
479.543	182.22
479.752	238.41
479.961	192.68
480.169	242.86
480.378	186.09
480.587	297.69
480.796	221.16
481.004	234.14
481.213	217.68
481.422	235.69
481.63	216.13
481.839	231.62
482.048	247.9
482.256	237.44
482.465	236.66
482.674	262.82
482.882	229.3
483.091	295.56
483.299	239.76
483.508	261.66
483.716	214.58
483.925	219.61
484.134	213.8
484.342	219.81
484.551	239.76
484.759	254.68
484.967	229.69
485.176	267.66
485.384	268.05
485.593	309.51
485.801	277.16
486.01	242.28
486.218	250.42
486.426	214.19
486.635	222.52
486.843	244.02
487.051	245.19
487.26	238.79
487.468	249.84
487.676	274.25
487.885	226.39
488.093	285.68
488.301	272.31
488.509	265.34
488.717	272.51
488.926	241.89
489.134	257.97
489.342	262.04
489.55	211.67
489.758	258.36
489.967	235.31
490.175	347.1
490.383	251.97
490.591	309.7
490.799	217.09
491.007	288.39
491.215	265.34
491.423	267.86
491.631	254.1
491.839	263.4
492.047	292.85
492.255	232.79
492.463	221.16
492.671	264.76
492.879	272.31
493.087	274.83
493.295	299.82
493.503	304.67
493.711	299.05
493.919	289.75
494.127	299.82
494.334	326.95
494.542	266.11
494.75	288.01
494.958	247.32
495.166	312.22
495.374	314.35
495.581	276.96
495.789	261.66
495.997	372.67
496.205	299.24
496.412	282.77
496.62	270.18
496.828	292.46
497.035	268.82
497.243	304.28
497.451	269.99
497.658	304.28
497.866	289.94
498.074	338.38
498.281	288.01
498.489	351.75
498.696	298.08
498.904	279.29
499.112	283.55
499.319	347.68
499.527	317.84
499.734	366.47
499.942	271.54
500.149	303.51
500.357	307.38
500.564	270.57
500.771	331.4
500.979	311.25
501.186	305.44
501.394	330.24
501.601	298.66
501.808	335.09
502.016	311.45
502.223	303.51
502.43	290.52
502.638	316.68
502.845	269.99
503.052	338.77
503.26	307.57
503.467	352.33
503.674	314.55
503.881	332.37
504.089	366.28
504.296	373.45
504.503	260.88
504.71	300.21
504.917	297.31
505.125	340.7
505.332	314.94
505.539	342.06
505.746	363.76
505.953	358.34
506.16	337.22
506.367	380.62
506.574	367.83
506.781	382.17
506.988	319.2
507.195	339.15
507.402	306.22
507.609	368.22
507.816	339.15
508.023	303.12
508.23	342.25
508.437	307.96
508.644	361.05
508.851	406.38
509.058	367.05
509.265	360.08
509.472	351.94
509.679	440.48
509.885	335.09
510.092	361.24
510.299	323.27
510.506	352.91
510.713	347.29
510.92	333.34
511.126	373.25
511.333	395.53
511.54	374.03
511.746	397.86
511.953	411.03
512.16	390.3
512.367	355.62
512.573	336.64
512.78	357.56
512.987	342.64
513.193	375.19
513.4	305.06
513.606	353.1
513.813	384.88
514.02	350.39
514.226	412
514.433	394.18
514.639	336.64
514.846	382.55
515.052	360.27
515.259	352.14
515.465	381.97
515.672	389.92
515.878	490.28
516.085	361.82
516.291	434.87
516.497	346.32
516.704	350.2
516.91	328.89
517.117	330.44
517.323	313.97
517.529	354.27
517.736	373.64
517.942	358.53
518.148	345.94
518.354	372.29
518.561	361.44
518.767	374.22
518.973	426.53
519.179	420.92
519.386	355.62
519.592	355.82
519.798	340.9
520.004	430.6
520.21	374.8
520.417	397.67
520.623	431.57
520.829	441.65
521.035	432.93
521.241	440.48
521.447	436.03
521.653	526.9
521.859	443.39
522.065	431.38
522.271	530.19
522.477	502.48
522.683	477.88
522.889	465.87
523.095	439.9
523.301	453.66
523.507	447.85
523.713	445.72
523.919	408.32
524.125	506.16
524.331	410.45
524.537	496.09
524.742	486.98
524.948	491.44
525.154	498.41
525.36	550.73
525.566	487.37
525.772	546.66
525.977	464.32
526.183	504.61
526.389	505.39
526.595	466.83
526.8	480.2
527.006	461.99
527.212	438.55
527.417	439.71
527.623	430.22
527.829	484.85
528.034	473.62
528.24	503.26
528.446	461.8
528.651	544.91
528.857	508.3
529.062	534.06
529.268	503.84
529.473	522.63
529.679	454.82
529.884	573.2
530.09	517.01
530.295	554.99
530.501	528.83
530.706	541.81
530.912	503.45
531.117	515.46
531.323	499
531.528	553.63
531.733	523.41
531.939	519.34
532.144	560.22
532.35	530.19
532.555	557.31
532.76	587.54
532.966	588.7
533.171	553.25
533.376	509.46
533.581	508.49
533.787	524.96
533.992	540.46
534.197	599.94
534.402	518.76
534.607	517.4
534.813	649.93
535.018	546.46
535.223	532.71
535.428	546.66
535.633	561.96
535.838	546.08
536.043	577.46
536.249	643.34
536.454	549.56
536.659	556.73
536.864	543.36
537.069	541.62
537.274	584.83
537.479	570.29
537.684	572.43
537.889	542.59
538.094	631.13
538.299	590.44
538.504	606.33
538.708	579.98
538.913	641.21
539.118	571.65
539.323	611.76
539.528	553.83
539.733	575.14
539.938	586.76
540.142	589.67
540.347	561.96
540.552	569.33
540.757	610.21
540.962	572.62
541.166	556.15
541.371	536.97
541.576	609.63
541.781	487.56
541.985	584.44
542.19	604.98
542.395	605.17
542.599	660.19
542.804	585.21
543.008	648.76
543.213	557.9
543.418	543.95
543.622	602.26
543.827	544.33
544.031	629.39
544.236	644.31
544.44	596.84
544.645	664.65
544.849	598.58
545.054	603.62
545.258	661.36
545.463	659.61
545.667	609.43
545.872	643.53
546.076	582.89
546.281	635.01
546.485	576.3
546.689	629.19
546.894	651.09
547.098	620.09
547.302	575.33
547.507	619.7
547.711	600.91
547.915	644.89
548.119	550.53
548.324	641.59
548.528	683.25
548.732	611.56
548.936	624.74
549.141	655.93
549.345	583.86
549.549	615.44
549.753	627.45
549.957	669.3
550.161	658.26
550.366	622.61
550.57	593.93
550.774	640.82
550.978	591.41
551.182	661.16
551.386	628.23
551.59	611.37
551.794	634.23
551.998	624.16
552.202	615.83
552.406	579.79
552.61	612.34
552.814	638.11
553.018	696.23
553.222	618.93
553.426	619.31
553.63	704.95
553.833	626.68
554.037	567.2
554.241	638.69
554.445	636.75
554.649	591.03
554.853	613.89
555.056	670.46
555.26	653.99
555.464	627.06
555.668	608.46
555.871	677.82
556.075	668.14
556.279	598.78
556.483	586.76
556.686	659.61
556.89	641.01
557.094	649.15
557.297	592.58
557.501	678.6
557.704	612.92
557.908	666.59
558.112	578.24
558.315	674.92
558.519	632.1
558.722	617.18
558.926	606.33
559.129	561.19
559.333	536.2
559.536	570.68
559.74	578.24
559.943	563.32
560.147	581.14
560.35	579.4
560.553	574.56
560.757	541.62
560.96	635.78
561.164	551.7
561.367	646.24
561.57	587.73
561.774	620.28
561.977	586.57
562.18	580.56
562.384	638.49
562.587	596.26
562.79	563.32
562.993	570.68
563.197	627.45
563.4	642.37
563.603	617.57
563.806	685.38
564.009	549.37
564.212	580.76
564.416	551.31
564.619	610.59
564.822	568.74
565.025	647.41
565.228	574.94
565.431	598.39
565.634	484.27
565.837	550.92
566.04	514.88
566.243	561.38
566.446	505.2
566.649	560.41
566.852	523.02
567.055	551.31
567.258	565.84
567.461	620.67
567.664	619.31
567.867	478.07
568.07	566.03
568.273	561.58
568.475	583.08
568.678	541.62
568.881	562.16
569.084	569.13
569.287	456.76
569.489	527.67
569.692	569.52
569.895	573.2
570.098	509.07
570.3	489.7
570.503	450.37
570.706	481.95
570.909	469.16
571.111	463.54
571.314	493.96
571.516	503.26
571.719	494.73
571.922	485.43
572.124	474.39
572.327	480.59
572.529	453.27
572.732	467.22
572.935	492.8
573.137	542.78
573.34	506.55
573.542	525.35
573.745	513.72
573.947	499
574.15	482.72
574.352	439.13
574.554	543.56
574.757	428.86
574.959	456.37
575.162	454.82
575.364	478.07
575.566	520.7
575.769	439.71
575.971	454.43
576.173	382.94
576.376	464.12
576.578	477.49
576.78	516.24
576.982	405.61
577.185	450.37
577.387	409.68
577.589	410.26
577.791	490.28
577.993	460.25
578.196	437.77
578.398	459.28
578.6	477.68
578.802	427.12
579.004	408.32
579.206	421.5
579.408	444.17
579.61	432.35
579.812	445.13
580.014	421.5
580.216	415.3
580.418	433.9
580.62	414.72
580.822	364.92
581.024	420.14
581.226	479.23
581.428	413.36
581.63	490.08
581.832	418.01
582.034	476.52
582.236	447.07
582.438	432.93
582.64	444.36
582.841	468.38
583.043	506.75
583.245	448.04
583.447	458.89
583.649	420.72
583.85	425.37
584.052	487.37
584.254	419.17
584.456	474
584.657	431.96
584.859	433.12
585.061	404.25
585.262	428.86
585.464	403.87
585.666	446.88
585.867	420.33
586.069	487.56
586.27	426.15
586.472	469.55
586.674	437
586.875	425.57
587.077	433.12
587.278	423.82
587.48	414.33
587.681	505.39
587.883	425.18
588.084	370.35
588.285	400.38
588.487	394.57
588.688	441.65
588.89	371.7
589.091	349.04
589.292	404.83
589.494	395.15
589.695	376.16
589.896	334.5
590.098	354.85
590.299	388.95
590.5	344.39
590.702	358.92
590.903	356.4
591.104	415.1
591.305	377.13
591.507	428.08
591.708	399.02
591.909	376.55
592.11	461.22
592.311	407.35
592.512	387.98
592.714	357.56
592.915	342.06
593.116	364.92
593.317	366.09
593.518	377.9
593.719	365.7
593.92	399.22
594.121	437.38
594.322	394.95
594.523	412.2
594.724	361.82
594.925	376.74
595.126	402.7
595.327	410.26
595.528	403.87
595.729	378.1
595.929	388.17
596.13	363.95
596.331	381.78
596.532	381.78
596.733	470.52
596.934	401.93
597.135	410.07
597.335	398.05
597.536	355.82
597.737	404.06
597.938	358.53
598.138	404.45
598.339	363.57
598.54	368.99
598.74	405.03
598.941	411.62
599.142	439.32
599.342	396.31
599.543	357.75
599.744	350.59
599.944	365.7
600.145	382.94
600.345	395.53
600.546	455.21
600.746	410.07
600.947	455.4
601.147	410.26
601.348	411.81
601.548	356.79
601.749	392.05
601.949	364.15
602.15	349.23
602.35	390.5
602.551	415.88
602.751	332.57
602.951	359.89
603.152	315.9
603.352	421.88
603.552	366.28
603.753	406.58
603.953	395.92
604.153	401.73
604.354	344
604.554	366.86
604.754	381.97
604.954	359.89
605.155	364.92
605.355	344.97
605.555	420.72
605.755	437.58
605.955	362.4
606.155	404.45
606.356	365.7
606.556	412.78
606.756	380.42
606.956	323.65
607.156	447.85
607.356	371.51
607.556	387.79
607.756	386.43
607.956	389.14
608.156	382.75
608.356	380.42
608.556	442.62
608.756	377.9
608.956	368.8
609.156	386.62
609.356	340.51
609.556	371.51
609.755	381
609.955	336.64
610.155	394.18
610.355	393.98
610.555	363.76
610.755	370.15
610.954	311.06
611.154	380.04
611.354	401.15
611.554	334.5
611.753	373.84
611.953	306.99
612.153	378.29
612.352	355.82
612.552	351.75
612.752	308.15
612.951	366.09
613.151	356.98
613.351	325.01
613.55	335.67
613.75	379.84
613.949	359.89
614.149	339.54
614.348	355.62
614.548	339.54
614.747	293.43
614.947	341.67
615.146	274.64
615.346	359.5
615.545	371.9
615.745	376.55
615.944	366.28
616.144	321.91
616.343	383.14
616.542	321.91
616.742	348.45
616.941	340.32
617.14	285.1
617.34	356.59
617.539	306.6
617.738	323.27
617.938	407.35
618.137	301.76
618.336	288.2
618.535	359.11
618.734	341.09
618.934	359.69
619.133	318.04
619.332	343.61
619.531	303.89
619.73	297.31
619.929	342.84
620.128	338.96
620.328	393.02
620.527	326.56
620.726	299.82
620.925	343.8
621.124	292.66
621.323	336.83
621.522	279.67
621.721	306.41
621.92	295.56
622.119	340.32
622.318	284.71
622.517	334.12
622.715	309.32
622.914	286.07
623.113	301.96
623.312	302.73
623.511	348.26
623.71	320.55
623.909	301.76
624.107	357.37
624.306	233.56
624.505	293.43
624.704	304.47
624.902	308.74
625.101	351.75
625.3	294.79
625.499	283.74
625.697	296.53
625.896	295.37
626.095	326.37
626.293	237.63
626.492	288.39
626.69	321.14
626.889	306.99
627.088	316.1
627.286	285.68
627.485	269.21
627.683	267.27
627.882	308.93
628.08	231.24
628.279	283.36
628.477	352.72
628.676	273.28
628.874	313.97
629.073	298.86
629.271	256.04
629.469	304.28
629.668	289.36
629.866	295.37
630.065	261.66
630.263	298.86
630.461	251
630.66	282
630.858	278.9
631.056	334.5
631.254	305.25
631.453	270.57
631.651	327.92
631.849	262.82
632.047	309.12
632.245	290.14
632.444	286.26
632.642	323.65
632.84	283.16
633.038	277.16
633.236	244.8
633.434	229.69
633.632	246.93
633.83	245.96
634.028	305.44
634.227	287.62
634.425	332.76
634.623	267.47
634.821	304.28
635.019	277.54
635.216	254.68
635.414	328.3
635.612	283.16
635.81	260.88
636.008	319.59
636.206	283.74
636.404	294.59
636.602	254.29
636.8	300.79
636.997	290.33
637.195	341.29
637.393	269.79
637.591	327.14
637.789	305.64
637.986	277.35
638.184	271.15
638.382	314.35
638.58	303.7
638.777	324.24
638.975	310.67
639.173	285.49
639.37	303.89
639.568	312.22
639.765	278.51
639.963	262.43
640.161	318.81
640.358	310.87
640.556	263.98
640.753	249.06
640.951	241.12
641.148	281.61
641.346	268.05
641.543	279.48
641.741	309.12
641.938	250.61
642.136	287.04
642.333	245.77
642.531	276.77
642.728	336.44
642.925	283.55
643.123	269.21
643.32	257.39
643.517	254.1
643.715	286.07
643.912	276.96
644.109	278.9
644.306	268.05
644.504	237.05
644.701	260.88
644.898	292.46
645.095	278.51
645.293	252.94
645.49	298.47
645.687	290.52
645.884	291.69
646.081	211.09
646.278	266.11
646.475	249.26
646.672	254.29
646.87	277.54
647.067	305.44
647.264	272.12
647.461	232.59
647.658	211.09
647.855	291.3
648.052	251.58
648.249	204.31
648.446	259.14
648.642	271.34
648.839	239.76
649.036	226.39
649.233	210.7
649.43	195.98
649.627	203.53
649.824	226.39
650.021	219.61
650.217	235.89
650.414	229.49
650.611	262.24
650.808	276.38
651.004	256.23
651.201	259.72
651.398	300.21
651.595	237.05
651.791	230.85
651.988	258.56
652.185	219.42
652.381	274.25
652.578	218.26
652.775	240.54
652.971	218.84
653.168	255.46
653.364	249.26
653.561	189.58
653.757	214.58
653.954	216.13
654.15	239.57
654.347	287.42
654.543	239.57
654.74	214.19
654.936	201.79
655.133	218.64
655.329	229.69
655.525	226.78
655.722	275.22
655.918	208.18
656.115	250.03
656.311	184.93
656.507	212.83
656.704	151.03
656.9	227.75
657.096	217.48
657.292	195.98
657.489	226.97
657.685	229.11
657.881	198.88
658.077	218.64
658.273	208.57
658.47	266.89
658.666	206.05
658.862	250.81
659.058	210.89
659.254	229.3
659.45	199.85
659.646	214.96
659.842	221.36
660.038	245.19
660.234	169.04
660.43	191.33
660.626	275.8
660.822	256.04
661.018	255.84
661.214	218.64
661.41	183.58
661.606	232.4
661.802	243.64
661.998	206.83
662.194	206.63
662.39	209.73
662.586	245.19
662.781	236.47
662.977	264.37
663.173	256.04
663.369	238.79
663.564	228.91
663.76	252.74
663.956	221.36
664.152	260.88
664.347	183.58
664.543	226.39
664.739	209.34
664.934	159.94
665.13	162.84
665.326	231.43
665.521	248.09
665.717	178.93
665.912	155.48
666.108	135.33
666.304	189.78
666.499	205.08
666.695	158.58
666.89	189.78
667.086	238.99
667.281	240.15
667.477	283.16
667.672	235.89
667.867	205.08
668.063	246.93
668.258	187.06
668.454	207.41
668.649	273.67
668.844	215.35
669.04	217.68
669.235	188.23
669.43	176.21
669.626	171.95
669.821	201.21
670.016	158.97
670.211	188.23
670.407	192.1
670.602	209.93
670.797	208.38
670.992	248.67
671.187	179.7
671.382	239.57
671.578	191.52
671.773	218.84
671.968	179.31
672.163	226.01
672.358	248.09
672.553	178.93
672.748	181.64
672.943	268.82
673.138	201.4
673.333	241.89
673.528	183.77
673.723	185.9
673.918	184.35
674.113	135.72
674.308	287.23
674.503	208.38
674.698	220.58
674.892	195.01
675.087	235.5
675.282	225.81
675.477	149.48
675.672	236.86
675.867	158.97
676.061	157.23
676.256	164.78
676.451	171.18
676.646	188.42
676.84	183.96
677.035	136.49
677.23	165.56
677.424	198.3
677.619	221.36
677.814	224.07
678.008	232.79
678.203	152.77
678.397	154.51
678.592	199.27
678.787	237.82
678.981	172.73
679.176	220.77
679.37	211.86
679.565	177.57
679.759	182.99
679.954	199.66
680.148	238.41
680.342	241.7
680.537	205.66
680.731	171.37
680.926	203.92
681.12	221.74
681.314	158.58
681.509	209.15
681.703	180.86
681.897	213.8
682.092	162.26
682.286	148.7
682.48	260.3
682.674	224.46
682.869	182.99
683.063	191.13
683.257	263.4
683.451	158.58
683.645	218.45
683.839	210.89
684.034	177.96
684.228	219.03
684.422	155.68
684.616	144.24
684.81	210.12
685.004	198.69
685.198	179.51
685.392	242.28
685.586	143.66
685.78	184.54
685.974	194.62
686.168	191.91
686.362	271.54
686.556	174.66
686.75	151.8
686.944	168.27
687.138	209.34
687.331	155.48
687.525	172.92
687.719	118.09
687.913	182.22
688.107	167.11
688.301	156.84
688.494	191.91
688.688	122.55
688.882	126.23
689.076	128.94
689.269	131.65
689.463	228.91
689.657	163.81
689.85	147.54
690.044	151.03
690.238	155.29
690.431	156.26
690.625	165.17
690.818	177.57
691.012	184.93
691.205	187.64
691.399	145.02
691.593	174.47
691.786	205.28
691.98	216.71
692.173	219.22
692.366	221.55
692.56	189.39
692.753	257.97
692.947	156.06
693.14	251.39
693.333	226.39
693.527	154.32
693.72	192.1
693.914	176.99
694.107	206.83
694.3	223.87
694.493	196.36
694.687	217.48
694.88	172.92
695.073	254.68
695.266	245.57
695.46	217.29
695.653	247.12
695.846	236.27
696.039	153.93
696.232	190.55
696.425	238.79
696.618	239.37
696.812	208.18
697.005	269.21
697.198	325.4
697.391	251.77
697.584	270.18
697.777	309.7
697.97	261.85
698.163	276.77
698.356	254.29
698.549	342.45
698.742	315.71
698.935	280.64
699.127	305.44
699.32	286.46
699.513	260.88
699.706	296.53
699.899	332.57
700.092	257.59
700.285	300.41
700.477	279.67
700.67	294.98
700.863	308.15
701.056	385.65
701.248	357.75
701.441	338.19
701.634	352.72
701.826	410.84
702.019	303.12
702.212	369.96
702.404	320.75
702.597	320.75
702.79	343.61
702.982	370.15
703.175	375.39
703.367	371.7
703.56	382.17
703.752	459.08
703.945	390.89
704.137	403.28
704.33	424.02
704.522	411.42
704.715	423.63
704.907	422.47
705.1	432.73
705.292	429.83
705.484	456.37
705.677	470.13
705.869	428.47
706.061	504.42
706.254	511.98
706.446	475.17
706.638	466.64
706.831	523.6
707.023	496.28
707.215	560.41
707.407	547.82
707.599	501.51
707.792	528.45
707.984	524.96
708.176	560.8
708.368	527.86
708.56	555.76
708.752	514.5
708.944	520.89
709.136	583.47
709.329	550.92
709.521	645.86
709.713	622.8
709.905	577.85
710.097	623.19
710.289	574.56
710.481	602.07
710.672	603.04
710.864	619.7
711.056	648.18
711.248	662.71
711.44	638.11
711.632	655.74
711.824	636.36
712.016	728.59
712.207	681.89
712.399	674.14
712.591	741.76
712.783	695.65
712.975	714.64
713.166	679.57
713.358	725.1
713.55	737.31
713.741	758.04
713.933	722
714.125	742.15
714.316	736.72
714.508	820.81
714.7	796.4
714.891	745.83
715.083	816.16
715.274	787.68
715.466	774.12
715.657	809.57
715.849	743.31
716.04	776.05
716.232	736.72
716.423	820.42
716.615	774.31
716.806	757.07
716.998	758.42
717.189	701.07
717.381	668.14
717.572	643.53
717.763	714.25
717.955	703.4
718.146	682.67
718.337	651.86
718.528	644.31
718.72	611.37
718.911	672.59
719.102	629.78
719.293	656.71
719.485	647.99
719.676	669.88
719.867	619.51
720.058	644.89
720.249	643.14
720.44	680.34
720.632	681.12
720.823	709.21
721.014	782.06
721.205	759.78
721.396	784.19
721.587	843.67
721.778	865.37
721.969	883
722.16	891.53
722.351	856.27
722.542	976.78
722.733	986.66
722.924	887.65
723.115	963.02
723.305	959.53
723.496	959.73
723.687	870.41
723.878	887.46
724.069	905.87
724.26	924.08
724.45	845.8
724.641	907.8
724.832	926.21
725.023	899.47
725.213	872.35
725.404	875.25
725.595	892.5
725.785	883.78
725.976	953.33
726.167	919.81
726.357	923.88
726.548	1012.23
726.739	927.18
726.929	988.21
727.12	994.6
727.31	1007.19
727.501	955.46
727.691	989.56
727.882	994.21
728.072	1010.49
728.263	1030.25
728.453	1043.62
728.644	1056.02
728.834	1034.9
729.024	1022.69
729.215	1019.59
729.405	1036.26
729.596	1128.09
729.786	1125.96
729.976	1102.13
730.167	1140.49
730.357	1096.71
730.547	1087.79
730.737	1122.47
730.928	1167.42
731.118	1202.69
731.308	1132.36
731.498	1160.26
731.688	1205.59
731.879	1169.75
732.069	1215.28
732.259	1265.46
732.449	1263.52
732.639	1317.58
732.829	1324.94
733.019	1356.13
733.209	1373.57
733.399	1350.32
733.589	1412.13
733.779	1439.06
733.969	1412.13
734.159	1429.37
734.349	1479.74
734.539	1489.24
734.729	1486.33
734.919	1500.48
735.109	1557.82
735.299	1507.45
735.488	1530.31
735.678	1539.61
735.868	1522.56
736.058	1530.31
736.248	1496.79
736.437	1486.53
736.627	1492.53
736.817	1631.64
737.007	1563.25
737.196	1585.53
737.386	1569.06
737.576	1556.27
737.765	1595.41
737.955	1585.14
738.144	1676.79
738.334	1627.57
738.524	1611.88
738.713	1612.27
738.903	1611.88
739.092	1686.47
739.282	1701
739.471	1703.14
739.661	1641.72
739.85	1664.97
740.04	1688.99
740.229	1736.27
740.419	1714.76
740.608	1726.58
740.797	1741.5
740.987	1773.85
741.176	1788.58
741.365	1723.48
741.555	1693.45
741.744	1780.05
741.933	1743.05
742.123	1820.16
742.312	1802.53
742.501	1821.9
742.69	1821.9
742.88	1724.83
743.069	1890.29
743.258	1822.1
743.447	1834.3
743.636	1845.73
743.825	1819.38
744.014	1827.33
744.204	1836.82
744.393	1810.66
744.582	1875.18
744.771	1923.04
744.96	1844.18
745.149	1879.44
745.338	1843.99
745.527	1868.98
745.716	1840.7
745.905	1854.84
746.094	1870.15
746.283	1891.26
746.471	1885.06
746.66	1960.04
746.849	1931.37
747.038	1954.62
747.227	1882.93
747.416	1903.08
747.604	1864.72
747.793	1910.25
747.982	1913.35
748.171	1945.13
748.359	1954.04
748.548	1926.72
748.737	1927.49
748.926	1929.82
749.114	1878.67
749.303	1921.88
749.491	1902.11
749.68	1831.59
749.869	1955.59
750.057	1887
750.246	1857.55
750.434	1862.01
750.623	1900.56
750.811	1883.13
751	1891.46
751.188	1898.43
751.377	1918.39
751.565	1895.53
751.754	1866.08
751.942	1889.91
752.131	1928.66
752.319	1858.13
752.507	1838.18
752.696	1905.02
752.884	1930.98
753.072	1902.31
753.261	1911.8
753.449	1878.67
753.637	1882.93
753.825	1930.59
754.014	1887.78
754.202	1864.53
754.39	1948.23
754.578	1926.72
754.766	1861.43
754.955	1856
755.143	1947.06
755.331	1868.21
755.519	1885.06
755.707	1869.37
755.895	1875.57
756.083	1882.93
756.271	1834.11
756.459	1865.88
756.647	1917.42
756.835	1891.65
757.023	1843.21
757.211	1833.33
757.399	1848.45
757.587	1854.06
757.775	1838.18
757.963	1855.42
758.151	1829.85
758.339	1800.01
758.526	1814.73
758.714	1830.62
758.902	1758.35
759.09	1732.78
759.278	1588.05
759.465	1502.41
759.653	1252.29
759.841	1171.11
760.028	970.96
760.216	835.92
760.404	846.97
760.591	650.89
760.779	553.25
760.967	487.18
761.154	406.97
761.342	427.31
761.529	401.15
761.717	456.37
761.905	457.73
762.092	476.91
762.28	401.93
762.467	450.37
762.655	390.89
762.842	425.76
763.029	423.24
763.217	413.55
763.404	424.6
763.592	483.3
763.779	390.89
763.966	461.8
764.154	463.54
764.341	498.41
764.528	518.56
764.716	546.27
764.903	570.1
765.09	600.33
765.277	616.99
765.465	746.22
765.652	744.28
765.839	787.87
766.026	889.4
766.213	861.5
766.4	937.45
766.588	1070.94
766.775	1046.91
766.962	1125.77
767.149	1157.35
767.336	1244.34
767.523	1206.56
767.71	1326.3
767.897	1377.64
768.084	1396.43
768.271	1408.45
768.458	1462.89
768.645	1480.71
768.832	1442.35
769.019	1493.31
769.206	1518.11
769.392	1538.06
769.579	1618.27
769.766	1600.84
769.953	1588.24
770.14	1626.41
770.327	1572.55
770.513	1609.94
770.7	1661.29
770.887	1603.94
771.073	1661.09
771.26	1644.04
771.447	1605.87
771.634	1606.26
771.82	1701.39
772.007	1608.39
772.193	1672.72
772.38	1686.67
772.567	1675.43
772.753	1651.6
772.94	1727.93
773.126	1693.45
773.313	1677.95
773.499	1712.63
773.686	1684.92
773.872	1665.16
774.059	1657.41
774.245	1630.48
774.432	1645.98
774.618	1584.37
774.804	1665.35
774.991	1583.98
775.177	1666.9
775.363	1624.47
775.55	1650.63
775.736	1606.26
775.922	1621.95
776.109	1617.11
776.295	1657.8
776.481	1644.82
776.667	1653.73
776.853	1619.44
777.04	1596.96
777.226	1582.24
777.412	1683.95
777.598	1570.61
777.784	1569.64
777.97	1593.67
778.156	1608.2
778.342	1603.94
778.528	1589.21
778.715	1541.94
778.901	1549.49
779.087	1606.46
779.272	1554.92
779.458	1535.35
779.644	1557.24
779.83	1556.27
780.016	1602.39
780.202	1571
780.388	1542.13
780.574	1504.54
780.76	1531.86
780.946	1573.91
781.131	1562.09
781.317	1527.21
781.503	1495.83
781.689	1482.07
781.874	1615.56
782.06	1538.26
782.246	1554.53
782.432	1482.65
782.617	1548.14
782.803	1576.23
782.989	1471.03
783.174	1497.76
783.36	1460.95
783.545	1470.64
783.731	1505.71
783.916	1470.64
784.102	1490.21
784.288	1456.3
784.473	1474.13
784.659	1468.7
784.844	1503.77
785.029	1430.15
785.215	1453.59
785.4	1435.57
785.586	1489.24
785.771	1407.86
785.956	1489.04
786.142	1424.53
786.327	1408.83
786.512	1428.98
786.698	1420.65
786.883	1399.53
787.068	1412.32
787.254	1428.6
787.439	1413.68
787.624	1410.77
787.809	1395.46
787.994	1385.97
788.18	1439.25
788.365	1338.5
788.55	1394.5
788.735	1363.3
788.92	1378.8
789.105	1377.25
789.29	1416.2
789.475	1328.23
789.66	1350.13
789.845	1329.4
790.03	1351.1
790.215	1357.3
790.4	1366.01
790.585	1398.76
790.77	1339.86
790.955	1263.91
791.14	1315.45
791.325	1363.69
791.51	1265.65
791.695	1323.97
791.879	1292.39
792.064	1271.85
792.249	1388.88
792.434	1311.18
792.618	1301.5
792.803	1315.83
792.988	1299.56
793.173	1311.38
793.357	1324.55
793.542	1286.19
793.727	1287.16
793.911	1322.03
794.096	1267.01
794.281	1348.58
794.465	1371.05
794.65	1319.32
794.834	1315.06
795.019	1382.68
795.203	1351.87
795.388	1331.14
795.572	1388.88
795.757	1336.76
795.941	1327.85
796.126	1360.4
796.31	1296.27
796.494	1333.08
796.679	1303.24
796.863	1288.13
797.048	1377.83
797.232	1331.14
797.416	1324.94
797.601	1323
797.785	1382.68
797.969	1357.1
798.153	1308.28
798.338	1345.09
798.522	1378.03
798.706	1373.57
798.89	1386.55
799.074	1425.88
799.258	1362.72
799.443	1331.14
799.627	1346.45
799.811	1361.17
799.995	1335.02
800.179	1332.69
800.363	1333.85
800.547	1340.05
800.731	1362.53
800.915	1335.21
801.099	1317.58
801.283	1326.68
801.467	1361.56
801.651	1314.48
801.835	1380.16
802.019	1351.87
802.202	1328.23
802.386	1313.51
802.57	1284.83
802.754	1346.64
802.938	1307.7
803.121	1300.92
803.305	1375.12
803.489	1314.28
803.673	1338.7
803.856	1356.13
804.04	1335.6
804.224	1331.14
804.407	1304.4
804.591	1319.32
804.775	1321.26
804.958	1317.58
805.142	1421.62
805.326	1335.79
805.509	1356.52
805.693	1388.3
805.876	1356.91
806.06	1350.32
806.243	1344.32
806.427	1389.07
806.61	1382.87
806.794	1312.15
806.977	1360.78
807.16	1349.74
807.344	1367.18
807.527	1330.95
807.71	1326.1
807.894	1386.75
808.077	1348
808.26	1342.77
808.444	1309.83
808.627	1353.42
808.81	1305.18
808.993	1280.57
809.177	1272.43
809.36	1297.04
809.543	1300.53
809.726	1248.41
809.909	1253.64
810.092	1224.77
810.276	1274.95
810.459	1252.29
810.642	1242.21
810.825	1228.65
811.008	1259.26
811.191	1177.31
811.374	1150.76
811.557	1200.36
811.74	1278.63
811.923	1111.82
812.106	1165.87
812.289	1141.46
812.472	1168.39
812.654	1197.65
812.837	1138.36
813.02	1094.77
813.203	1116.27
813.386	985.3
813.569	1013.78
813.751	1015.91
813.934	1051.18
814.117	1031.99
814.3	994.02
814.482	997.51
814.665	944.61
814.848	935.9
815.03	926.4
815.213	895.21
815.396	881.45
815.578	884.94
815.761	825.46
815.943	932.8
816.126	842.32
816.309	826.82
816.491	811.7
816.674	755.9
816.856	802.79
817.039	788.84
817.221	859.37
817.403	782.25
817.586	812.87
817.768	832.24
817.951	794.65
818.133	771.4
818.315	800.66
818.498	796.79
818.68	880.48
818.862	835.73
819.045	868.47
819.227	849.1
819.409	804.92
819.591	851.23
819.774	839.99
819.956	799.89
820.138	894.63
820.32	845.61
820.502	886.3
820.684	895.02
820.866	892.3
821.048	961.66
821.231	974.84
821.413	940.74
821.595	936.86
821.777	949.65
821.959	901.22
822.141	943.45
822.323	866.53
822.505	851.42
822.686	838.63
822.868	841.35
823.05	725.68
823.232	733.43
823.414	671.62
823.596	752.61
823.778	735.56
823.96	746.22
824.141	743.12
824.323	745.25
824.505	803.18
824.687	817.9
824.868	833.6
825.05	883.97
825.232	956.24
825.413	986.85
825.595	931.05
825.777	880.68
825.958	889.98
826.14	941.13
826.321	920.78
826.503	900.63
826.685	916.52
826.866	926.4
827.048	943.65
827.229	898.7
827.411	868.28
827.592	825.85
827.773	846.77
827.955	800.27
828.136	808.8
828.318	782.25
828.499	830.3
828.68	802.02
828.862	831.47
829.043	840.18
829.224	807.05
829.406	785.94
829.587	783.22
829.768	774.89
829.949	830.3
830.131	783.42
830.312	858.78
830.493	831.27
830.674	837.47
830.855	798.72
831.036	818.29
831.218	862.85
831.399	865.57
831.58	797.75
831.761	844.25
831.942	826.24
832.123	814.42
832.304	775.86
832.485	813.84
832.666	791.36
832.847	820.62
833.028	791.75
833.209	809.77
833.389	798.72
833.57	767.53
833.751	810.15
833.932	869.25
834.113	832.82
834.294	815
834.475	826.62
834.655	843.67
834.836	863.63
835.017	859.17
835.198	762.3
835.378	838.63
835.559	881.07
835.74	813.25
835.92	826.62
836.101	802.79
836.281	848.32
836.462	825.27
836.643	868.08
836.823	876.61
837.004	854.33
837.184	892.88
837.365	869.63
837.545	893.66
837.726	841.15
837.906	893.08
838.087	862.66
838.267	843.67
838.448	801.24
838.628	858.2
838.808	847.16
838.989	902.38
839.169	830.69
839.349	855.68
839.53	889.78
839.71	870.8
839.89	838.44
840.07	886.1
840.251	838.63
840.431	877
840.611	869.25
840.791	856.65
840.971	848.52
841.151	842.7
841.332	810.54
841.512	894.43
841.692	845.61
841.872	837.86
842.052	820.62
842.232	881.26
842.412	809.38
842.592	855.3
842.772	878.35
842.952	870.6
843.132	806.67
843.312	852.78
843.492	817.32
843.672	839.02
843.851	773.54
844.031	850.65
844.211	838.44
844.391	802.6
844.571	813.06
844.751	865.37
844.93	827.01
845.11	818.1
845.29	848.9
845.47	877.77
845.649	835.92
845.829	846.38
846.009	828.95
846.188	841.93
846.368	838.25
846.547	820.04
846.727	868.86
846.907	797.75
847.086	810.35
847.266	861.69
847.445	849.1
847.625	761.52
847.804	798.72
847.984	803.95
848.163	790.2
848.343	803.95
848.522	832.24
848.701	820.81
848.881	765.98
849.06	801.63
849.239	797.95
849.419	843.09
849.598	782.64
849.777	799.5
849.957	779.93
850.136	749.12
850.315	707.86
850.494	700.88
850.674	725.1
850.853	786.32
851.032	747.38
851.211	822.36
851.39	766.95
851.569	748.54
851.748	737.5
851.927	773.15
852.107	750.09
852.286	729.36
852.465	689.64
852.644	772.57
852.823	739.24
853.002	746.99
853.181	747.77
853.359	745.83
853.538	716.38
853.717	779.54
853.896	688.09
854.075	695.65
854.254	659.61
854.433	593.93
854.611	679.57
854.79	633.26
854.969	676.86
855.148	660.97
855.327	652.83
855.505	678.41
855.684	657.09
855.863	722.19
856.041	644.69
856.22	666.78
856.399	632.88
856.577	723.36
856.756	705.34
856.934	805.5
857.113	790.39
857.291	730.33
857.47	705.14
857.648	723.74
857.827	715.22
858.005	753
858.184	695.65
858.362	812.48
858.541	731.3
858.719	685.77
858.898	725.29
859.076	707.08
859.254	770.82
859.433	712.51
859.611	680.73
859.789	671.43
859.967	720.26
860.146	765.2
860.324	675.11
860.502	700.88
860.68	653.03
860.859	694.49
861.037	709.79
861.215	697.97
861.393	702.82
861.571	704.37
861.749	680.73
861.927	708.05
862.105	697.97
862.283	675.69
862.461	668.72
862.639	676.66
862.817	657.87
862.995	665.81
863.173	682.47
863.351	686.16
863.529	695.46
863.707	708.82
863.885	689.26
864.063	607.49
864.241	640.24
864.418	722.58
864.596	646.83
864.774	638.11
864.952	678.79
865.129	675.69
865.307	642.56
865.485	604.01
865.663	688.67
865.84	613.89
866.018	643.34
866.196	549.37
866.373	588.31
866.551	564.87
866.728	511.78
866.906	559.64
867.084	591.61
867.261	602.07
867.439	607.3
867.616	622.61
867.794	600.91
867.971	600.91
868.149	590.83
868.326	642.37
868.503	644.89
868.681	615.44
868.858	591.99
869.035	581.73
869.213	628.61
869.39	590.44
869.567	659.61
869.745	583.08
869.922	591.8
870.099	623.19
870.276	613.31
870.454	607.3
870.631	621.06
870.808	613.69
870.985	628.03
871.162	666.39
871.339	614.08
871.517	566.42
871.694	555.18
871.871	606.14
872.048	599.74
872.225	595.87
872.402	608.85
872.579	559.64
872.756	591.61
872.933	551.7
873.11	597.03
873.287	586.96
873.463	573.01
873.64	558.09
873.817	616.99
873.994	599.36
874.171	560.61
874.348	582.69
874.524	536
874.701	590.06
874.878	518.95
875.055	592.77
875.231	579.98
875.408	600.91
875.585	529.61
875.762	574.36
875.938	541.62
876.115	552.86
876.291	557.51
876.468	556.54
876.645	526.9
876.821	559.25
876.998	539.49
877.174	562.16
877.351	519.92
877.527	513.91
877.704	550.34
877.88	569.13
878.057	545.3
878.233	563.51
878.409	530.58
878.586	543.56
878.762	531.35
878.938	509.65
879.115	506.75
879.291	548.01
879.467	475.36
879.644	489.5
879.82	571.84
879.996	505.97
880.172	479.04
880.349	494.54
880.525	535.81
880.701	497.25
880.877	497.83
881.053	521.86
881.229	534.45
881.405	531.93
881.581	471.68
881.757	528.06
881.933	504.81
882.109	514.5
882.285	531.74
882.461	487.95
882.637	484.66
882.813	482.72
882.989	488.53
883.165	543.56
883.341	471.68
883.517	513.91
883.693	501.13
883.869	525.73
884.044	488.15
884.22	549.95
884.396	547.43
884.572	521.08
884.747	540.65
884.923	532.71
885.099	521.08
885.275	534.26
885.45	484.46
885.626	500.35
885.801	457.15
885.977	501.13
886.153	480.59
886.328	518.56
886.504	488.53
886.679	536
886.855	496.48
887.03	505.2
887.206	546.85
887.381	553.44
887.557	509.65
887.732	541.04
887.908	486.01
888.083	554.41
888.258	494.73
888.434	495.12
888.609	508.68
888.784	551.7
888.96	430.8
889.135	487.95
889.31	479.82
889.485	490.66
889.661	468
889.836	511.01
890.011	503.26
890.186	485.24
890.361	489.11
890.537	519.15
890.712	510.23
890.887	502.48
891.062	497.45
891.237	541.23
891.412	497.25
891.587	510.23
891.762	524.96
891.937	551.89
892.112	453.47
892.287	525.54
892.462	449.01
892.637	454.05
892.812	453.27
892.987	480.2
893.161	433.7
893.336	464.32
893.511	449.2
893.686	454.63
893.861	458.12
894.035	463.93
894.21	463.54
894.385	390.11
894.56	465.09
894.734	427.12
894.909	398.63
895.084	418.01
895.258	406.19
895.433	443.58
895.608	408.32
895.782	360.27
895.957	358.53
896.131	391.85
896.306	306.22
896.48	345.35
896.655	350.78
896.829	310.09
897.004	295.76
897.178	325.59
897.353	318.81
897.527	380.04
897.701	324.24
897.876	291.3
898.05	372.67
898.224	328.69
898.399	367.25
898.573	359.89
898.747	263.4
898.921	344.97
899.096	261.07
899.27	281.22
899.444	253.71
899.618	275.99
899.792	253.13
899.967	284.52
900.141	295.37
900.315	252.55
900.489	263.01
900.663	288.97
900.837	288.59
901.011	251
901.185	346.9
901.359	286.07
901.533	298.47
901.707	251
901.881	318.42
902.055	248.48
902.229	289.75
902.403	333.92
902.576	304.28
902.75	293.82
902.924	400.18
903.098	319.59
903.272	348.45
903.446	374.8
903.619	352.72
903.793	363.18
903.967	335.86
904.14	382.17
904.314	369.77
904.488	357.37
904.661	383.52
904.835	362.6
905.009	391.08
905.182	406.19
905.356	376.35
905.529	384.1
905.703	352.72
905.876	357.56
906.05	295.95
906.223	305.25
906.397	284.32
906.57	293.82
906.744	276.19
906.917	284.91
907.09	266.11
907.264	279.48
907.437	287.23
907.61	234.34
907.784	291.11
907.957	279.67
908.13	245.19
908.304	305.44
908.477	251.58
908.65	270.57
908.823	247.12
908.996	282.97
909.17	250.42
909.343	274.25
909.516	249.45
909.689	294.21
909.862	220.58
910.035	261.27
910.208	208.76
910.381	209.34
910.554	314.16
910.727	251.19
910.9	232.98
911.073	220.97
911.246	298.27
911.419	292.07
911.592	268.44
911.765	230.66
911.938	241.31
912.11	254.1
912.283	231.43
912.456	281.81
912.629	263.59
912.802	234.72
912.974	205.66
913.147	199.85
913.32	159.74
913.493	224.26
913.665	202.76
913.838	236.47
914.01	203.92
914.183	211.09
914.356	182.22
914.528	232.59
914.701	280.45
914.873	247.71
915.046	195.78
915.218	182.61
915.391	160.13
915.563	172.53
915.736	216.9
915.908	235.5
916.081	214.58
916.253	201.59
916.425	213.22
916.598	259.33
916.77	196.17
916.942	188.81
917.115	129.13
917.287	225.42
917.459	202.37
917.632	166.53
917.804	143.47
917.976	223.29
918.148	180.48
918.32	181.64
918.493	199.08
918.665	246.35
918.837	202.95
919.009	244.61
919.181	249.06
919.353	239.37
919.525	207.79
919.697	207.79
919.869	230.66
920.041	263.21
920.213	290.72
920.385	239.57
920.557	205.28
920.729	218.06
920.901	213.03
921.073	246.54
921.244	231.62
921.416	220.97
921.588	226.01
921.76	190.16
921.932	321.14
922.103	218.64
922.275	205.86
922.447	228.14
922.619	171.18
922.79	220.97
922.962	194.43
923.134	221.16
923.305	184.35
923.477	155.09
923.648	154.32
923.82	201.01
923.991	171.56
924.163	160.33
924.335	191.52
924.506	191.52
924.677	229.49
924.849	160.13
925.02	197.53
925.192	232.21
925.363	189
925.535	200.24
925.706	151.22
925.877	218.45
926.049	176.41
926.22	203.73
926.391	223.68
926.562	203.34
926.734	178.54
926.905	186.29
927.076	133.01
927.247	170.98
927.419	174.86
927.59	137.85
927.761	177.57
927.932	149.28
928.103	171.37
928.274	122.16
928.445	117.12
928.616	135.53
928.787	126.03
928.958	176.99
929.129	133.39
929.3	130.88
929.471	125.84
929.642	68.1
929.813	33.42
929.984	103.17
930.155	52.41
930.326	89.22
930.496	88.64
930.667	41.56
930.838	74.88
931.009	51.25
931.18	70.23
931.35	71.01
931.521	70.04
931.692	32.07
931.863	21.41
932.033	67.33
932.204	75.85
932.374	85.73
932.545	32.84
932.716	87.28
932.886	85.73
933.057	-6.88
933.227	26.25
933.398	85.35
933.568	7.85
933.739	-9.59
933.909	10.17
934.08	48.73
934.25	-15.4
934.421	13.08
934.591	33.23
934.761	6.68
934.932	-28.38
935.102	-5.13
935.272	-4.17
935.443	-3.78
935.613	13.08
935.783	13.85
935.953	-38.07
936.123	138.63
936.294	1.84
936.464	3.97
936.634	16.95
936.804	-8.04
936.974	-13.08
937.144	35.17
937.314	16.57
937.484	28.38
937.655	-6.68
937.825	45.05
937.995	-23.73
938.165	57.83
938.334	13.08
938.504	25.87
938.674	-21.02
938.844	10.75
939.014	42.92
939.184	19.08
939.354	82.05
939.524	69.07
939.694	14.82
939.863	25.48
940.033	73.91
940.203	78.37
940.373	34
940.542	91.93
940.712	39.43
940.882	76.24
941.051	46.98
941.221	54.54
941.391	82.05
941.56	33.81
941.73	21.41
941.899	127.58
942.069	35.36
942.238	44.08
942.408	13.27
942.577	42.92
942.747	40.2
942.916	-22.38
943.086	15.79
943.255	46.98
943.425	61.13
943.594	19.28
943.763	-16.95
943.933	18.5
944.102	-44.27
944.271	28.38
944.441	45.82
944.61	-1.65
944.779	42.53
944.948	106.46
945.117	-7.85
945.287	3
945.456	-15.02
945.625	4.36
945.794	41.37
945.963	-6.88
946.132	67.71
946.301	20.63
946.47	41.75
946.639	-32.26
946.808	-1.65
946.977	30.32
947.146	70.23
947.315	6.88
947.484	43.3
947.653	18.89
947.822	3.39
947.991	2.62
948.16	85.35
948.329	55.31
948.498	13.66
948.666	14.82
948.835	44.85
949.004	-22.18
949.173	2.42
949.341	26.06
949.51	56.48
949.679	65.78
949.847	73.33
950.016	100.85
950.185	73.72
950.353	-1.26
950.522	-0.68
950.69	45.43
950.859	-15.4
951.028	46.01
951.196	24.12
951.365	-1.45
951.533	25.48
951.701	48.73
951.87	60.55
952.038	-9.78
952.207	28.38
952.375	82.44
952.543	15.4
952.712	22.96
952.88	17.34
953.048	84.18
953.217	20.83
953.385	15.98
953.553	49.89
953.721	-16.57
953.89	3.58
954.058	-0.29
954.226	2.23
954.394	32.84
954.562	-24.32
954.73	28.38
954.898	-2.03
955.067	59.58
955.235	1.84
955.403	51.25
955.571	82.05
955.739	48.73
955.907	0.87
956.075	10.56
956.243	-15.21
956.41	35.55
956.578	-24.12
956.746	0.87
956.914	-5.72
957.082	50.08
957.25	24.51
957.418	-0.68
957.585	39.04
957.753	41.95
957.921	-14.24
958.089	31.87
958.256	39.82
958.424	25.28
958.592	26.25
958.759	22.18
958.927	32.65
959.095	1.65
959.262	36.33
959.43	57.64
959.597	6.88
959.765	1.65
959.932	4.17
960.1	39.62
960.267	33.42
960.435	26.45
960.602	67.13
960.77	39.62
960.937	-1.26
961.104	18.5
961.272	-20.05
961.439	8.43
961.606	34.39
961.774	54.35
961.941	11.33
962.108	47.95
962.275	50.08
962.443	71.4
962.61	50.28
962.777	81.08
962.944	64.42
963.111	44.27
963.278	39.23
963.446	38.07
963.613	17.34
963.78	48.15
963.947	52.21
964.114	34.97
964.281	106.08
964.448	72.36
964.615	12.5
964.782	39.23
964.949	43.69
965.116	65.39
965.282	73.91
965.449	34.78
965.616	14.05
965.783	56.48
965.95	40.59
966.117	11.53
966.283	39.04
966.45	33.62
966.617	42.14
966.784	100.07
966.95	40.59
967.117	75.85
967.284	5.52
967.45	-12.5
967.617	66.75
967.784	43.11
967.95	104.33
968.117	37.1
968.283	74.3
968.45	151.61
968.616	34
968.783	58.22
968.949	70.23
969.116	83.21
969.282	51.63
969.449	62.29
969.615	30.13
969.781	-1.07
969.948	16.57
970.114	-10.56
970.28	92.51
970.447	37.68
970.613	77.4
970.779	30.13
970.945	40.2
971.112	70.43
971.278	28.77
971.444	37.49
971.61	74.88
971.776	15.21
971.942	66.75
972.108	80.89
972.275	45.24
972.441	48.92
972.607	118.09
972.773	18.12
972.939	68.88
973.105	43.5
973.271	6.88
973.437	56.09
973.602	8.04
973.768	56.86
973.934	35.75
974.1	23.35
974.266	-14.82
974.432	52.99
974.598	9.4
974.763	92.51
974.929	2.81
975.095	124.29
975.261	41.17
975.426	-2.03
975.592	45.05
975.758	82.25
975.923	-1.07
976.089	23.15
976.255	58.41
976.42	49.11
976.586	47.76
976.751	47.76
976.917	106.46
977.082	73.14
977.248	9.78
977.413	-23.35
977.579	16.37
977.744	39.23
977.91	-15.6
978.075	17.92
978.24	69.65
978.406	51.83
978.571	44.66
978.736	10.56
978.902	57.45
979.067	-13.08
979.232	-1.07
979.397	37.88
979.563	48.92
979.728	16.76
979.893	10.17
980.058	33.42
980.223	50.86
980.388	35.36
980.554	56.09
980.719	18.7
980.884	59.58
981.049	73.14
981.214	4.75
981.379	38.27
981.544	14.24
981.709	40.2
981.874	23.73
982.039	22.77
982.204	49.11
982.368	53.18
982.533	-4.94
982.698	92.9
982.863	81.28
983.028	31.1
983.193	40.98
983.357	30.9
983.522	28
983.687	24.7
983.852	20.44
984.016	44.46
984.181	46.6
984.346	46.4
984.51	36.91
984.675	23.54
984.839	62.68
985.004	43.3
985.168	64.23
985.333	51.63
985.498	28.38
985.662	46.4
985.827	30.9
985.991	25.48
986.155	19.08
986.32	73.53
986.484	88.06
986.649	65.78
986.813	1.07
986.977	42.53
987.142	79.73
987.306	14.24
987.47	-2.42
987.634	41.56
987.799	54.73
987.963	50.66
988.127	75.66
988.291	78.76
988.455	53.38
988.62	34.58
988.784	83.21
988.948	51.63
989.112	11.72
989.276	53.38
989.44	6.3
989.604	29.55
989.768	68.68
989.932	113.83
990.096	4.36
990.26	-8.82
990.424	-11.72
990.588	17.15
990.752	122.35
990.915	82.05
991.079	36.72
991.243	23.73
991.407	57.45
991.571	23.15
991.734	60.74
991.898	72.75
992.062	100.26
992.226	50.66
992.389	0.87
992.553	-7.65
992.717	10.75
992.88	3.39
993.044	28.58
993.207	32.84
993.371	38.07
993.535	64.42
993.698	16.95
993.862	60.74
994.025	91.35
994.189	58.03
994.352	53.57
994.515	40.59
994.679	66.75
994.842	45.05
995.006	75.66
995.169	21.99
995.332	14.82
995.496	62.1
995.659	8.43
995.822	39.43
995.985	16.76
996.149	64.03
996.312	48.73
996.475	86.9
996.638	-6.49
996.801	87.09
996.964	82.63
997.128	24.12
997.291	0.29
997.454	46.21
997.617	0.87
997.78	61.9
997.943	33.03
998.106	63.84
998.269	16.76
998.432	52.21
998.595	47.76
998.758	-16.95
998.92	-3.97
999.083	-25.28
999.246	16.18
999.409	-9.2
999.572	-9.78
999.735	14.43
999.897	27.42
1000.06	29.35
1000.223	16.18
1000.386	59.96
1000.548	63.84
1000.711	74.3
1000.874	10.37
1001.036	-25.67
1001.199	42.53
1001.361	19.67
1001.524	6.1
1001.687	33.81
1001.849	-3.39
1002.012	51.63
1002.174	51.25
1002.337	47.18
1002.499	3
1002.661	91.16
1002.824	4.36
1002.986	4.75
1003.149	32.45
1003.311	-4.55
1003.473	52.02
1003.636	25.48
1003.798	41.17
1003.96	39.43
1004.123	28.58
1004.285	-10.95
1004.447	7.65
1004.609	12.3
1004.771	52.21
1004.933	-16.76
1005.096	-26.06
1005.258	0.1
1005.42	0.87
1005.582	59.77
1005.744	22.38
1005.906	-42.14
1006.068	54.73
1006.23	-32.65
1006.392	-27.03
1006.554	3.97
1006.716	49.31
1006.878	39.43
1007.04	3
1007.202	4.55
1007.363	26.25
1007.525	52.41
1007.687	36.33
1007.849	50.08
1008.011	-19.86
1008.172	-8.23
1008.334	7.27
1008.496	29.74
1008.658	-27.61
1008.819	-4.17
1008.981	-31.29
1009.143	-23.93
1009.304	29.55
1009.466	34.78
1009.627	77.01
1009.789	113.44
1009.95	9.59
1010.112	0.29
1010.273	19.86
1010.435	-7.27
1010.596	-2.23
1010.758	20.63
1010.919	0.68
1011.081	-1.07
1011.242	29.74
1011.403	49.7
1011.565	33.42
1011.726	22.77
1011.887	-18.12
1012.049	10.75
1012.21	52.6
1012.371	70.23
1012.532	-35.17
1012.693	7.46
1012.855	0.29
1013.016	-0.29
1013.177	50.47
1013.338	22.18
1013.499	50.66
1013.66	60.35
1013.821	26.83
1013.982	10.17
1014.143	17.53
1014.304	-7.07
1014.465	19.47
1014.626	30.13
1014.787	19.86
1014.948	77.6
1015.109	-55.9
1015.27	42.92
1015.431	24.32
1015.592	0.87
1015.752	55.7
1015.913	23.15
1016.074	49.7
1016.235	13.66
1016.395	-7.27
1016.556	1.84
1016.717	14.24
1016.877	72.56
1017.038	-8.82
1017.199	22.57
1017.359	21.22
1017.52	1.65
1017.681	-13.08
1017.841	-13.85
1018.002	-9.01
1018.162	-6.1
1018.323	60.16
1018.483	0.29
1018.644	10.37
1018.804	-25.48
1018.964	-31.68
1019.125	-17.73
1019.285	23.54
1019.446	20.83
1019.606	-13.66
1019.766	-38.65
1019.926	31.48
1020.087	16.76
1020.247	-32.45
1020.407	23.93
1020.567	53.18
1020.728	26.06
1020.888	-19.67
1021.048	-19.86
1021.208	-23.35
1021.368	-20.83
1021.528	40.01
1021.688	39.82
1021.848	28.58
1022.008	19.67
1022.168	10.17
1022.328	19.67
1022.488	14.43
1022.648	-17.34
1022.808	4.75
1022.968	7.85
1023.128	-3
1023.288	-31.29
1023.448	2.81
1023.608	11.72
1023.767	32.07
1023.927	-31.68
1024.087	-15.98
1024.247	-41.95
1024.406	-8.43
1024.566	-19.67
1024.726	-15.02
1024.885	14.63
1025.045	12.11
1025.205	8.43
1025.364	3.97
1025.524	12.11
1025.683	-1.07
1025.843	1.45
1026.003	-0.68
1026.162	22.77
1026.321	69.07
1026.481	11.92
1026.64	15.4
1026.8	20.44
1026.959	6.49
1027.119	3.39
1027.278	-5.72
1027.437	-3.97
1027.597	9.4
1027.756	37.49
1027.915	41.37
1028.074	31.48
1028.234	-15.79
1028.393	4.75
1028.552	15.79
1028.711	-54.54
1028.87	42.33
1029.03	-18.7
1029.189	7.46
1029.348	-70.81
1029.507	-15.6
1029.666	12.5
1029.825	-20.83
1029.984	5.13
1030.143	20.05
1030.302	-1.84
1030.461	-53.96
1030.62	3.78
1030.779	11.72
1030.938	-4.36
1031.097	-0.68
1031.255	35.75
1031.414	54.15
1031.573	39.04
1031.732	-22.77
1031.891	-18.12
1032.049	35.36
1032.208	29.74
1032.367	-0.87
1032.525	8.82
1032.684	-8.23
1032.843	-17.15
1033.001	-61.32
1033.16	174.28
1033.319	42.53
1033.477	3.2
1033.636	7.46
1033.794	-48.15
1033.953	20.63
1034.111	33.23
1034.27	6.88
1034.428	15.79
1034.587	-56.48
1034.745	9.59
1034.903	-10.56
1035.062	17.15
1035.22	-17.53
1035.378	36.52
1035.537	-13.08
1035.695	21.41
1035.853	-25.48
1036.011	16.76
1036.17	14.63
1036.328	-39.62
1036.486	22.77
1036.644	5.72
1036.802	-94.65
1036.96	7.46
1037.119	-11.14
1037.277	7.65
1037.435	-38.46
1037.593	-22.38
1037.751	3.39
1037.909	2.42
1038.067	2.42
