Data from oakcork_FLMT105791__225__17-32-56-055.txt Node

Date: Mon Mar 20 17:32:56 GMT 2023
User: antho
Spectrometer: FLMT10579
Trigger mode: 0
Integration Time (sec): 1.000000E-1
Scans to average: 10
Electric dark correction enabled: true
Nonlinearity correction enabled: false
Boxcar width: 0
XAxis mode: Wavelengths
Number of Pixels in Spectrum: 3648
>>>>>Begin Spectral Data<<<<<
345.248	-141.5
345.464	-141.5
345.681	-141.5
345.898	-150.02
346.114	-142.66
346.331	-12.85
346.548	22.99
346.764	2.84
346.981	-7.04
347.197	-6.46
347.414	-6.85
347.631	-12.85
347.847	78.6
348.064	0.13
348.28	6.52
348.497	-61.09
348.713	-3.94
348.93	37.72
349.146	20.67
349.363	-8.2
349.579	26.29
349.796	5.75
350.012	23.77
350.229	18.92
350.445	23.96
350.661	4.39
350.878	10.79
351.094	59.42
351.311	25.12
351.527	34.42
351.743	1.29
351.96	26.48
352.176	47.4
352.392	23.38
352.609	28.22
352.825	2.07
353.041	-1.03
353.257	7.69
353.474	17.76
353.69	20.47
353.906	25.7
354.122	12.92
354.339	75.88
354.555	3.81
354.771	-8.98
354.987	67.94
355.203	64.07
355.42	0.52
355.636	9.82
355.852	-13.63
356.068	40.62
356.284	-21.57
356.5	53.22
356.716	11.95
356.932	-3.55
357.148	36.55
357.364	43.33
357.58	57.09
357.796	67.55
358.012	52.05
358.228	39.46
358.444	-18.66
358.66	69.3
358.876	23.57
359.092	2.45
359.308	54.57
359.524	41.01
359.74	-3.94
359.956	-5.88
360.172	30.55
360.388	66.78
360.604	19.7
360.819	89.83
361.035	32.68
361.251	40.62
361.467	3.23
361.683	43.33
361.898	48.57
362.114	76.08
362.33	39.46
362.546	55.15
362.762	0.71
362.977	37.52
363.193	-3.94
363.409	59.61
363.624	-4.13
363.84	10.79
364.056	13.3
364.271	33.84
364.487	30.93
364.703	31.9
364.918	18.73
365.134	7.3
365.35	53.6
365.565	128
365.781	54.77
365.996	48.18
366.212	99.91
366.427	58.06
366.643	19.31
366.858	35.39
367.074	-11.11
367.289	76.85
367.505	105.72
367.72	-6.85
367.936	19.31
368.151	55.93
368.367	54.96
368.582	37.72
368.798	21.25
369.013	100.1
369.228	44.69
369.444	40.04
369.659	81.12
369.874	34.23
370.09	80.73
370.305	-18.47
370.52	13.11
370.736	86.15
370.951	37.91
371.166	61.93
371.381	80.53
371.597	59.61
371.812	1.49
372.027	14.27
372.242	30.93
372.458	87.32
372.673	20.47
372.888	45.27
373.103	47.98
373.318	117.35
373.533	54.18
373.749	58.83
373.964	-20.8
374.179	52.63
374.394	11.75
374.609	75.69
374.824	7.1
375.039	62.13
375.254	19.31
375.469	69.1
375.684	37.13
375.899	104.37
376.114	49.53
376.329	40.04
376.544	62.13
376.759	60.19
376.974	39.27
377.189	38.3
377.404	28.8
377.619	87.32
377.834	-2
378.049	11.37
378.264	-3.75
378.478	53.99
378.693	6.52
378.908	72.98
379.123	55.35
379.338	60.97
379.553	65.03
379.767	69.88
379.982	60
380.197	62.52
380.412	35.2
380.626	53.41
380.841	126.26
381.056	61.93
381.271	124.9
381.485	8.46
381.7	18.73
381.915	41.01
382.129	42.75
382.344	40.82
382.559	28.42
382.773	49.73
382.988	5.55
383.202	51.47
383.417	32.87
383.632	131.49
383.846	50.31
384.061	69.3
384.275	13.5
384.49	70.46
384.704	65.42
384.919	56.9
385.133	30.55
385.348	59.03
385.562	18.92
385.777	84.22
385.991	39.07
386.206	62.9
386.42	42.17
386.634	89.45
386.849	60
387.063	35
387.277	26.67
387.492	45.08
387.706	14.08
387.92	25.9
388.135	80.15
388.349	67.17
388.563	55.93
388.778	47.79
388.992	84.41
389.206	59.03
389.42	136.14
389.635	34.62
389.849	83.44
390.063	100.3
390.277	93.52
390.491	118.51
390.706	55.35
390.92	104.95
391.134	83.25
391.348	89.64
391.562	23.19
391.776	77.43
391.99	41.98
392.205	95.65
392.419	57.87
392.633	48.18
392.847	122
393.061	25.7
393.275	123.93
393.489	39.46
393.703	55.73
393.917	83.05
394.131	45.85
394.345	53.41
394.559	79.95
394.773	68.52
394.986	114.44
395.2	77.43
395.414	109.02
395.628	22.8
395.842	98.94
396.056	49.53
396.27	13.3
396.484	80.73
396.697	73.75
396.911	112.5
397.125	56.12
397.339	104.37
397.553	71.82
397.766	134.98
397.98	117.35
398.194	100.49
398.408	83.63
398.621	110.76
398.835	95.65
399.049	93.52
399.262	121.03
399.476	139.43
399.69	121.22
399.903	183.61
400.117	127.03
400.331	137.88
400.544	116.96
400.758	180.12
400.971	139.82
401.185	152.41
401.398	75.11
401.612	152.8
401.826	151.83
402.039	122.19
402.253	89.25
402.466	149.9
402.68	124.32
402.893	119.09
403.106	100.68
403.32	103.59
403.533	149.51
403.747	104.95
403.96	136.33
404.174	134.59
404.387	103.4
404.6	144.86
404.814	159.78
405.027	112.89
405.24	136.91
405.454	138.08
405.667	177.99
405.88	61.55
406.094	140.79
406.307	159.58
406.52	144.86
406.733	127.42
406.947	83.83
407.16	205.5
407.373	171.6
407.586	136.14
407.799	100.49
408.012	188.26
408.226	152.22
408.439	180.31
408.652	84.02
408.865	144.47
409.078	208.6
409.291	146.99
409.504	113.28
409.717	147.57
409.93	154.93
410.143	122.58
410.357	106.3
410.57	99.91
410.783	152.41
410.996	148.73
411.209	125.68
411.421	184
411.634	170.43
411.847	126.65
412.06	178.76
412.273	135.75
412.486	159.39
412.699	225.26
412.912	152.22
413.125	165.59
413.338	150.09
413.55	193.49
413.763	164.04
413.976	190.2
414.189	167.72
414.402	170.05
414.615	197.56
414.827	119.09
415.04	195.62
415.253	185.74
415.466	192.71
415.678	227.01
415.891	202.98
416.104	149.12
416.316	157.84
416.529	155.32
416.742	183.61
416.954	205.69
417.167	164.23
417.38	147.38
417.592	194.46
417.805	143.11
418.017	122.19
418.23	183.61
418.442	155.9
418.655	146.8
418.868	170.05
419.08	208.79
419.293	231.46
419.505	200.27
419.718	195.04
419.93	214.22
420.142	148.54
420.355	202.4
420.567	238.63
420.78	205.69
420.992	190.2
421.205	225.26
421.417	152.8
421.629	178.18
421.842	164.81
422.054	144.86
422.266	210.54
422.479	220.42
422.691	174.11
422.903	217.13
423.115	174.89
423.328	189.03
423.54	197.36
423.752	214.22
423.964	171.6
424.177	205.5
424.389	182.83
424.601	272.34
424.813	190.97
425.025	237.66
425.238	238.83
425.45	192.13
425.662	211.51
425.874	463.38
426.086	204.92
426.298	222.55
426.51	203.56
426.722	229.33
426.934	184
427.146	219.64
427.358	165.01
427.57	245.41
427.782	201.43
427.994	185.93
428.206	182.64
428.418	159.2
428.63	220.61
428.842	235.34
429.054	170.24
429.266	203.18
429.478	177.41
429.69	184
429.902	154.93
430.114	219.45
430.325	199.88
430.537	163.07
430.749	183.41
430.961	153.77
431.173	159.97
431.384	184.96
431.596	148.73
431.808	169.27
432.02	238.05
432.231	250.26
432.443	253.94
432.655	242.7
432.867	192.33
433.078	237.28
433.29	289.78
433.502	272.15
433.713	255.29
433.925	261.3
434.136	275.44
434.348	190.58
434.56	174.7
434.771	316.13
434.983	214.03
435.194	231.85
435.406	250.06
435.617	289.98
435.829	345
436.04	278.74
436.252	284.16
436.463	327.17
436.675	284.55
436.886	286.1
437.098	300.63
437.309	309.35
437.521	289.01
437.732	291.52
437.943	295.98
438.155	261.3
438.366	220.03
438.578	323.11
438.789	273.89
439	281.06
439.211	251.03
439.423	298.5
439.634	267.69
439.845	306.83
440.057	319.23
440.268	347.71
440.479	283
440.69	295.79
440.902	278.35
441.113	275.25
441.324	299.27
441.535	285.71
441.746	354.88
441.957	275.64
442.168	288.23
442.38	350.23
442.591	341.32
442.802	281.64
443.013	287.07
443.224	322.52
443.435	275.06
443.646	309.16
443.857	327.17
444.068	302.96
444.279	283.19
444.49	379.1
444.701	336.28
444.912	405.25
445.123	375.42
445.334	352.94
445.545	343.45
445.756	331.05
445.967	283
446.178	323.3
446.388	365.73
446.599	366.7
446.81	343.26
447.021	330.66
447.232	371.54
447.443	386.85
447.653	310.51
447.864	397.12
448.075	341.12
448.286	402.74
448.496	347.32
448.707	367.47
448.918	324.07
449.129	394.99
449.339	329.5
449.55	389.56
449.761	375.03
449.971	399.25
450.182	356.82
450.393	382.39
450.603	332.41
450.814	382.97
451.024	362.63
451.235	420.56
451.446	407.58
451.656	444.78
451.867	360.31
452.077	388.59
452.288	423.27
452.498	423.27
452.709	358.95
452.919	390.72
453.13	321.56
453.34	415.52
453.55	309.35
453.761	378.71
453.971	387.62
454.182	430.64
454.392	421.92
454.602	450.79
454.813	422.69
455.023	413.59
455.233	350.23
455.444	409.52
455.654	327.17
455.864	374.26
456.075	360.31
456.285	387.24
456.495	366.12
456.705	405.06
456.916	438.58
457.126	423.47
457.336	414.94
457.546	358.17
457.756	376.58
457.967	456.21
458.177	404.29
458.387	427.73
458.597	392.66
458.807	389.17
459.017	397.12
459.227	409.71
459.437	402.54
459.647	439.35
459.857	449.43
460.068	379.87
460.278	469
460.488	435.67
460.698	451.17
460.908	423.27
461.117	359.72
461.327	419.59
461.537	435.87
461.747	435.29
461.957	450.98
462.167	554.05
462.377	467.83
462.587	446.33
462.797	462.41
463.007	460.47
463.216	441.1
463.426	494.18
463.636	453.11
463.846	407
464.056	407.19
464.265	444.59
464.475	438.19
464.685	451.37
464.895	476.55
465.104	425.4
465.314	488.37
465.524	452.72
465.733	457.37
465.943	489.73
466.153	512.98
466.362	529.06
466.572	486.82
466.782	432.96
466.991	456.21
467.201	513.17
467.41	415.33
467.62	500.77
467.829	474.23
468.039	491.86
468.249	475.58
468.458	465.51
468.668	499.8
468.877	536.03
469.086	530.42
469.296	542.62
469.505	484.3
469.715	581.76
469.924	538.17
470.134	536.23
470.343	550.95
470.552	491.28
470.762	506.78
470.971	509.68
471.18	536.23
471.39	530.03
471.599	467.83
471.808	555.02
472.018	499.03
472.227	562.38
472.436	547.47
472.645	537.78
472.855	527.9
473.064	593.96
473.273	548.63
473.482	568.97
473.691	589.31
473.901	566.06
474.11	560.64
474.319	634.65
474.528	576.14
474.737	622.06
474.946	600.94
475.155	584.08
475.364	608.5
475.573	619.93
475.783	621.28
475.992	609.27
476.201	639.11
476.41	610.24
476.619	589.9
476.828	627.48
477.037	587.38
477.245	622.45
477.454	660.81
477.663	611.6
477.872	623.22
478.081	689.87
478.29	600.75
478.499	724.74
478.708	664.49
478.917	699.17
479.125	654.99
479.334	693.94
479.543	648.41
479.752	666.43
479.961	681.34
480.169	717.38
480.378	671.27
480.587	810.38
480.796	721.45
481.004	702.46
481.213	754.19
481.422	729.78
481.63	736.76
481.839	747.61
482.048	811.54
482.256	756.71
482.465	766.59
482.674	785.19
482.882	780.16
483.091	836.34
483.299	753.61
483.508	778.61
483.716	765.43
483.925	804.18
484.134	757.29
484.342	775.31
484.551	803.6
484.759	773.96
484.967	822.2
485.176	832.85
485.384	820.26
485.593	826.07
485.801	817.35
486.01	789.65
486.218	756.32
486.426	675.53
486.635	721.26
486.843	696.65
487.051	729.39
487.26	748.38
487.468	789.65
487.676	795.27
487.885	785.39
488.093	816.97
488.301	814.64
488.509	868.31
488.717	876.25
488.926	857.07
489.134	871.8
489.342	861.14
489.55	825.88
489.758	874.9
489.967	867.54
490.175	973.52
490.383	886.72
490.591	964.99
490.799	858.43
491.007	932.44
491.215	929.15
491.423	916.17
491.631	881.68
491.839	885.17
492.047	922.75
492.255	867.73
492.463	840.02
492.671	869.86
492.879	952.98
493.087	914.62
493.295	929.34
493.503	931.08
493.711	963.44
493.919	1000.64
494.127	1020.6
494.334	987.85
494.542	914.42
494.75	1009.16
494.958	987.66
495.166	1020.98
495.374	1000.64
495.581	966.93
495.789	998.9
495.997	1068.45
496.205	973.52
496.412	969.06
496.62	1023.5
496.828	1010.33
497.035	1004.71
497.243	992.7
497.451	995.99
497.658	1023.7
497.866	1003.16
498.074	1057.41
498.281	990.56
498.489	1106.43
498.696	1009.16
498.904	988.63
499.112	969.06
499.319	1038.81
499.527	1020.98
499.734	1041.33
499.942	1003.74
500.149	996.18
500.357	1002.96
500.564	959.18
500.771	1015.36
500.979	967.32
501.186	994.44
501.394	1018.85
501.601	1000.64
501.808	1014.4
502.016	1017.69
502.223	1008.39
502.43	1018.08
502.638	1030.67
502.845	990.76
503.052	1069.03
503.26	1007.42
503.467	1078.53
503.674	1069.81
503.881	1046.17
504.089	1105.46
504.296	1052.37
504.503	978.36
504.71	1025.05
504.917	989.02
505.125	1070.78
505.332	1051.6
505.539	1087.44
505.746	1131.23
505.953	1084.34
506.16	1105.26
506.367	1133.36
506.574	1143.24
506.781	1165.71
506.988	1095.77
507.195	1106.62
507.402	1093.06
507.609	1119.41
507.816	1055.66
508.023	1078.33
508.23	1078.91
508.437	1020.01
508.644	1081.04
508.851	1141.3
509.058	1132.39
509.265	1131.81
509.472	1155.06
509.679	1212.79
509.885	1130.26
510.092	1150.21
510.299	1148.66
510.506	1121.34
510.713	1146.73
510.92	1154.67
511.126	1172.3
511.333	1169.59
511.54	1164.16
511.746	1204.66
511.953	1198.84
512.16	1197.1
512.367	1156.22
512.573	1143.24
512.78	1167.07
512.987	1168.42
513.193	1161.84
513.4	1113.01
513.606	1153.31
513.813	1207.17
514.02	1161.26
514.226	1249.99
514.433	1172.3
514.639	1110.49
514.846	1151.57
515.052	1150.21
515.259	1172.3
515.465	1174.04
515.672	1179.86
515.878	1269.95
516.085	1197.29
516.291	1201.17
516.497	1165.52
516.704	1162.23
516.91	1125.41
517.117	1067.87
517.323	1021.76
517.529	1074.46
517.736	1096.74
517.942	1098.87
518.148	1069.23
518.354	1113.79
518.561	1106.23
518.767	1122.12
518.973	1163.39
519.179	1175.01
519.386	1170.75
519.592	1153.7
519.798	1131.03
520.004	1233.52
520.21	1213.18
520.417	1235.85
520.623	1259.87
520.829	1283.9
521.035	1287.19
521.241	1267.43
521.447	1255.03
521.653	1367.6
521.859	1282.93
522.065	1304.24
522.271	1405.38
522.477	1351.32
522.683	1395.69
522.889	1323.81
523.095	1339.31
523.301	1308.5
523.507	1283.12
523.713	1313.54
523.919	1297.65
524.125	1378.83
524.331	1367.79
524.537	1431.15
524.742	1380.97
524.948	1399.57
525.154	1439.28
525.36	1487.91
525.566	1437.54
525.772	1444.51
525.977	1342.99
526.183	1419.33
526.389	1417.2
526.595	1325.36
526.8	1336.4
527.006	1330.98
527.212	1288.94
527.417	1279.05
527.623	1301.72
527.829	1370.31
528.034	1376.51
528.24	1403.05
528.446	1367.21
528.651	1470.67
528.857	1485.01
529.062	1539.45
529.268	1478.61
529.473	1469.9
529.679	1481.13
529.884	1549.33
530.09	1511.75
530.295	1559.21
530.501	1539.26
530.706	1473.38
530.912	1475.13
531.117	1502.25
531.323	1517.56
531.528	1551.85
531.733	1540.42
531.939	1533.44
532.144	1553.79
532.35	1543.13
532.555	1560.38
532.76	1524.73
532.966	1538.09
533.171	1514.84
533.376	1490.63
533.581	1490.63
533.787	1535.19
533.992	1524.14
534.197	1568.9
534.402	1574.71
534.607	1543.52
534.813	1618.11
535.018	1513.68
535.223	1563.28
535.428	1575.29
535.633	1602.22
535.838	1632.64
536.043	1616.37
536.249	1704.52
536.454	1606.68
536.659	1617.92
536.864	1571.42
537.069	1637.1
537.274	1621.79
537.479	1614.04
537.684	1618.89
537.889	1601.64
538.094	1666.94
538.299	1606.87
538.504	1650.27
538.708	1606.29
538.913	1692.32
539.118	1660.54
539.323	1692.7
539.528	1627.41
539.733	1666.74
539.938	1687.09
540.142	1668.87
540.347	1627.99
540.552	1625.28
540.757	1596.22
540.962	1627.99
541.166	1568.32
541.371	1554.18
541.576	1610.75
541.781	1535.77
541.985	1643.88
542.19	1667.52
542.395	1695.42
542.599	1707.62
542.804	1673.72
543.008	1708.01
543.213	1677.01
543.418	1656.09
543.622	1665
543.827	1626.06
544.031	1719.25
544.236	1743.47
544.44	1710.72
544.645	1770.59
544.849	1693.87
545.054	1705.69
545.258	1791.71
545.463	1752.77
545.667	1700.84
545.872	1736.3
546.076	1699.49
546.281	1703.94
546.485	1706.85
546.689	1742.5
546.894	1745.79
547.098	1733.59
547.302	1720.6
547.507	1744.44
547.711	1750.44
547.915	1745.21
548.119	1729.9
548.324	1741.72
548.528	1791.52
548.732	1747.15
548.936	1760.71
549.141	1750.25
549.345	1741.53
549.549	1759.74
549.753	1767.3
549.957	1802.37
550.161	1797.13
550.366	1744.63
550.57	1752.19
550.774	1750.05
550.978	1743.08
551.182	1770.59
551.386	1698.9
551.59	1738.82
551.794	1744.44
551.998	1783.18
552.202	1735.52
552.406	1747.54
552.61	1778.15
552.814	1760.32
553.018	1793.65
553.222	1728.94
553.426	1759.35
553.63	1802.95
553.833	1749.09
554.037	1729.71
554.241	1777.18
554.445	1779.12
554.649	1740.95
554.853	1741.34
555.056	1813.8
555.26	1826.58
555.464	1759.35
555.668	1793.26
555.871	1797.72
556.075	1841.12
556.279	1739.4
556.483	1724.29
556.686	1749.86
556.89	1742.69
557.094	1762.45
557.297	1702.78
557.501	1812.44
557.704	1688.83
557.908	1775.82
558.112	1700.84
558.315	1800.43
558.519	1744.82
558.722	1709.17
558.926	1681.27
559.129	1650.86
559.333	1635.55
559.536	1644.46
559.74	1640.78
559.943	1608.04
560.147	1638.46
560.35	1640.97
560.553	1676.82
560.757	1616.37
560.96	1732.81
561.164	1616.17
561.367	1744.82
561.57	1644.46
561.774	1667.71
561.977	1654.73
562.18	1627.61
562.384	1714.21
562.587	1628.77
562.79	1667.91
562.993	1640.78
563.197	1684.37
563.4	1700.26
563.603	1689.41
563.806	1755.09
564.009	1629.16
564.212	1666.36
564.416	1605.91
564.619	1644.07
564.822	1577.81
565.025	1644.85
565.228	1634.19
565.431	1654.34
565.634	1558.05
565.837	1605.71
566.04	1593.12
566.243	1557.86
566.446	1495.28
566.649	1575.88
566.852	1541.97
567.055	1547.01
567.258	1565.22
567.461	1617.34
567.664	1614.62
567.867	1513.88
568.07	1569.29
568.273	1547.98
568.475	1583.63
568.678	1567.74
568.881	1517.94
569.084	1516.2
569.287	1462.34
569.489	1477.84
569.692	1525.5
569.895	1541.78
570.098	1445.48
570.3	1446.84
570.503	1407.51
570.706	1404.22
570.909	1437.73
571.111	1400.73
571.314	1367.98
571.516	1413.9
571.719	1424.37
571.922	1410.03
572.124	1432.89
572.327	1401.12
572.529	1375.35
572.732	1435.02
572.935	1409.06
573.137	1492.76
573.34	1393.37
573.542	1428.05
573.745	1447.81
573.947	1455.36
574.15	1424.17
574.352	1384.26
574.554	1440.25
574.757	1352.87
574.959	1367.79
575.162	1395.3
575.364	1357.33
575.566	1477.84
575.769	1355.39
575.971	1385.62
576.173	1255.22
576.376	1327.88
576.578	1382.32
576.78	1406.73
576.982	1279.83
577.185	1367.79
577.387	1318.19
577.589	1304.05
577.791	1348.8
577.993	1373.8
578.196	1339.7
578.398	1339.31
578.6	1355.2
578.802	1269.95
579.004	1288.94
579.206	1290.1
579.408	1330.59
579.61	1310.64
579.812	1360.04
580.014	1309.09
580.216	1321.1
580.418	1288.55
580.62	1305.4
580.822	1274.6
581.024	1341.05
581.226	1350.93
581.428	1338.92
581.63	1411.58
581.832	1340.28
582.034	1387.55
582.236	1350.93
582.438	1389.49
582.64	1326.14
582.841	1417.39
583.043	1421.46
583.245	1357.13
583.447	1369.15
583.649	1359.85
583.85	1374.38
584.052	1426.11
584.254	1353.84
584.456	1380.58
584.657	1310.25
584.859	1349.19
585.061	1335.63
585.262	1300.56
585.464	1327.88
585.666	1368.95
585.867	1333.89
586.069	1383.1
586.27	1354.23
586.472	1329.04
586.674	1314.32
586.875	1331.56
587.077	1337.95
587.278	1365.08
587.48	1292.23
587.681	1414.1
587.883	1339.89
588.084	1268.79
588.285	1266.65
588.487	1271.5
588.688	1281.77
588.89	1217.64
589.091	1159.9
589.292	1188.19
589.494	1156.8
589.695	1125.41
589.896	1123.86
590.098	1113.79
590.299	1142.46
590.5	1146.14
590.702	1159.51
590.903	1187.61
591.104	1240.69
591.305	1229.46
591.507	1266.46
591.708	1230.81
591.909	1220.16
592.11	1279.44
592.311	1303.27
592.512	1214.73
592.714	1162.03
592.915	1182.57
593.116	1224.03
593.317	1248.83
593.518	1228.49
593.719	1201.17
593.92	1229.65
594.121	1251.74
594.322	1257.55
594.523	1242.44
594.724	1206.01
594.925	1170.56
595.126	1232.75
595.327	1210.08
595.528	1214.54
595.729	1203.11
595.929	1203.49
596.13	1219.77
596.331	1242.44
596.532	1200.78
596.733	1300.95
596.934	1260.65
597.135	1263.75
597.335	1230.23
597.536	1202.91
597.737	1251.35
597.938	1213.57
598.138	1243.21
598.339	1220.54
598.54	1243.21
598.74	1206.21
598.941	1246.31
599.142	1270.34
599.342	1242.63
599.543	1240.5
599.744	1237.21
599.944	1241.47
600.145	1205.82
600.345	1236.24
600.546	1292.23
600.746	1246.12
600.947	1291.26
601.147	1239.53
601.348	1242.05
601.548	1216.28
601.749	1252.7
601.949	1197.1
602.15	1222.29
602.35	1192.45
602.551	1259.1
602.751	1194.58
602.951	1205.82
603.152	1157.38
603.352	1224.81
603.552	1210.27
603.753	1238.56
603.953	1234.69
604.153	1219.77
604.354	1221.12
604.554	1232.56
604.754	1241.86
604.954	1180.82
605.155	1229.65
605.355	1216.86
605.555	1258.32
605.755	1257.35
605.955	1224.03
606.155	1248.64
606.356	1226.55
606.556	1238.37
606.756	1231.78
606.956	1195.94
607.156	1275.57
607.356	1185.67
607.556	1244.96
607.756	1220.35
607.956	1272.47
608.156	1225.97
608.356	1196.13
608.556	1210.86
608.756	1203.69
608.956	1198.07
609.156	1256.39
609.356	1147.11
609.556	1184.89
609.755	1212.02
609.955	1164.16
610.155	1213.57
610.355	1211.63
610.555	1179.66
610.755	1181.41
610.954	1130.06
611.154	1192.64
611.354	1211.05
611.554	1156.03
611.753	1131.61
611.953	1144.59
612.153	1180.24
612.352	1192.06
612.552	1141.69
612.752	1108.56
612.951	1138.2
613.151	1165.13
613.351	1151.38
613.55	1135.68
613.75	1176.17
613.949	1133.55
614.149	1158.54
614.348	1138.59
614.548	1092.48
614.747	1052.56
614.947	1090.93
615.146	1050.24
615.346	1145.76
615.545	1155.44
615.745	1128.71
615.944	1138.59
616.144	1153.89
616.343	1157.38
616.542	1090.73
616.742	1138.98
616.941	1075.23
617.14	1039.78
617.34	1080.08
617.539	1095.38
617.738	1088.41
617.938	1146.53
618.137	1083.37
618.336	1049.85
618.535	1120.76
618.734	1076.98
618.934	1101
619.133	1115.14
619.332	1148.28
619.531	1055.28
619.73	1100.81
619.929	1147.31
620.128	1120.57
620.328	1151.18
620.527	1087.44
620.726	1080.46
620.925	1114.37
621.124	1111.66
621.323	1118.44
621.522	1074.07
621.721	1066.51
621.92	1047.14
622.119	1114.76
622.318	1042.3
622.517	1052.56
622.715	1067.1
622.914	1024.86
623.113	1036.87
623.312	1039.39
623.511	1051.6
623.71	1045.59
623.909	1035.13
624.107	1099.06
624.306	1028.73
624.505	1035.71
624.704	1039
624.902	1015.56
625.101	1126.77
625.3	1064.19
625.499	1023.7
625.697	1042.49
625.896	1014.98
626.095	1031.45
626.293	980.88
626.492	1005.29
626.69	1036.87
626.889	981.65
627.088	1051.79
627.286	987.47
627.485	1002.77
627.683	988.43
627.882	1026.99
628.08	914.42
628.279	968.09
628.477	1027.57
628.676	938.83
628.874	984.95
629.073	955.3
629.271	923.14
629.469	988.63
629.668	965.77
629.866	969.64
630.065	936.12
630.263	1003.74
630.461	963.44
630.66	974.68
630.858	982.82
631.056	1012.65
631.254	987.47
631.453	944.84
631.651	1006.26
631.849	955.11
632.047	959.37
632.245	972.74
632.444	1007.23
632.642	1011.68
632.84	1003.93
633.038	960.73
633.236	912.48
633.434	954.72
633.632	957.43
633.83	941.55
634.028	1019.24
634.227	987.47
634.425	1088.02
634.623	975.07
634.821	970.03
635.019	1010.13
635.216	1026.21
635.414	1008.78
635.612	992.89
635.81	979.33
636.008	1041.13
636.206	1002.77
636.404	1014.78
636.602	970.61
636.8	995.8
636.997	1021.18
637.195	1019.05
637.393	993.66
637.591	1075.43
637.789	1009.16
637.986	1012.07
638.184	1011.88
638.382	1045.78
638.58	1033
638.777	1083.18
638.975	1008.39
639.173	1013.81
639.37	1018.08
639.568	1013.81
639.765	1008
639.963	977.58
640.161	1037.45
640.358	1011.3
640.556	942.32
640.753	950.46
640.951	966.15
641.148	970.8
641.346	975.26
641.543	970.03
641.741	1004.32
641.938	964.22
642.136	972.93
642.333	958.6
642.531	1032.41
642.728	1008.2
642.925	1003.74
643.123	948.72
643.32	974.48
643.517	952.78
643.715	1003.35
643.912	951.82
644.109	978.55
644.306	972.16
644.504	947.94
644.701	940.38
644.898	989.79
645.095	929.15
645.293	953.17
645.49	989.98
645.687	975.84
645.884	992.89
646.081	874.51
646.278	951.62
646.475	924.11
646.672	883.23
646.87	928.18
647.067	948.72
647.264	920.23
647.461	880.9
647.658	831.69
647.855	915.2
648.052	866.18
648.249	814.06
648.446	864.05
648.642	846.61
648.839	830.53
649.036	854.36
649.233	827.24
649.43	854.75
649.627	823.55
649.824	851.26
650.021	852.04
650.217	876.06
650.414	833.63
650.611	869.86
650.808	890.79
651.004	875.67
651.201	895.82
651.398	929.92
651.595	874.12
651.791	861.14
651.988	908.8
652.185	847.97
652.381	873.54
652.578	824.14
652.775	861.14
652.971	845.45
653.168	846.61
653.364	892.14
653.561	823.17
653.757	863.66
653.954	857.85
654.15	866.18
654.347	943.68
654.543	909.77
654.74	815.22
654.936	825.49
655.133	813.48
655.329	840.8
655.525	842.54
655.722	845.64
655.918	811.16
656.115	821.42
656.311	744.31
656.507	707.89
656.704	682.51
656.9	750.51
657.096	715.44
657.292	740.44
657.489	807.67
657.685	805.34
657.881	781.51
658.077	780.93
658.273	826.46
658.47	859.98
658.666	806.7
658.862	857.65
659.058	802.44
659.254	858.04
659.45	812.51
659.646	821.62
659.842	820.45
660.038	859.59
660.234	803.99
660.43	824.14
660.626	877.61
660.822	875.29
661.018	881.1
661.214	841.38
661.41	816.77
661.606	857.46
661.802	886.91
661.998	834.4
662.194	801.47
662.39	880.52
662.586	867.54
662.781	854.75
662.977	869.86
663.173	870.25
663.369	815.22
663.564	856.3
663.76	871.41
663.956	807.86
664.152	863.85
664.347	764.46
664.543	843.12
664.739	844.67
664.934	764.85
665.13	772.02
665.326	840.99
665.521	855.52
665.717	808.83
665.912	798.37
666.108	728.04
666.304	803.99
666.499	822.2
666.695	799.34
666.89	796.62
667.086	845.45
667.281	836.54
667.477	868.5
667.672	817.35
667.867	825.49
668.063	843.7
668.258	775.51
668.454	764.85
668.649	894.47
668.844	812.71
669.04	838.47
669.235	803.79
669.43	774.92
669.626	769.11
669.821	780.16
670.016	766.98
670.211	767.76
670.407	772.41
670.602	780.35
670.797	791.2
670.992	827.04
671.187	792.17
671.382	842.15
671.578	789.46
671.773	802.44
671.968	736.17
672.163	797.01
672.358	811.54
672.553	780.54
672.748	779.19
672.943	828.59
673.138	785.58
673.333	805.34
673.528	753.81
673.723	816.39
673.918	760.01
674.113	753.42
674.308	855.91
674.503	781.12
674.698	834.4
674.892	802.44
675.087	802.44
675.282	766.21
675.477	777.64
675.672	778.02
675.867	765.82
676.061	736.17
676.256	736.95
676.451	732.3
676.646	798.56
676.84	740.05
677.035	738.31
677.23	728.23
677.424	792.17
677.619	814.06
677.814	793.72
678.008	768.72
678.203	720.09
678.397	735.21
678.592	710.02
678.787	831.5
678.981	739.86
679.176	766.21
679.37	746.06
679.565	735.59
679.759	756.91
679.954	771.63
680.148	808.83
680.342	788.29
680.537	792.94
680.731	765.24
680.926	777.06
681.12	767.76
681.314	754.77
681.509	759.81
681.703	763.3
681.897	757.87
682.092	756.52
682.286	736.56
682.48	792.75
682.674	790.23
682.869	740.44
683.063	770.27
683.257	761.17
683.451	743.73
683.645	769.11
683.839	759.62
684.034	726.68
684.228	763.49
684.422	718.16
684.616	701.88
684.81	776.67
685.004	728.81
685.198	735.21
685.392	767.76
685.586	713.89
685.78	747.02
685.974	750.51
686.168	772.79
686.362	746.25
686.556	694.52
686.75	665.07
686.944	632.13
687.138	663.52
687.331	565.1
687.525	563.55
687.719	544.75
687.913	585.63
688.107	589.51
688.301	516.66
688.494	590.86
688.688	547.27
688.882	543.78
689.076	512.78
689.269	550.57
689.463	648.79
689.657	567.03
689.85	555.99
690.044	583.89
690.238	593.58
690.431	620.51
690.625	583.7
690.818	634.65
691.012	647.24
691.205	643.95
691.399	577.5
691.593	649.57
691.786	712.34
691.98	670.3
692.173	710.02
692.366	686.38
692.56	699.36
692.753	742.37
692.947	643.37
693.14	725.52
693.333	724.94
693.527	661
693.72	726.29
693.914	671.66
694.107	701.11
694.3	692
694.493	674.95
694.687	706.73
694.88	705.56
695.073	734.43
695.266	716.99
695.46	754.39
695.653	788.1
695.846	777.83
696.039	693.94
696.232	735.4
696.425	787.52
696.618	796.43
696.812	812.71
697.005	833.82
697.198	884
697.391	830.34
697.584	882.45
697.777	896.21
697.97	853
698.163	870.25
698.356	870.64
698.549	950.46
698.742	903.18
698.935	855.52
699.127	910.35
699.32	864.82
699.513	878
699.706	904.93
699.899	929.53
700.092	913.45
700.285	932.05
700.477	864.24
700.67	897.95
700.863	927.21
701.056	1012.07
701.248	973.32
701.441	985.14
701.634	971.77
701.826	1045.01
702.019	932.63
702.212	1010.91
702.404	980.3
702.597	939.03
702.79	1016.72
702.982	1022.73
703.175	1081.24
703.367	1046.17
703.56	1084.34
703.752	1181.6
703.945	1124.64
704.137	1105.26
704.33	1163.19
704.522	1168.81
704.715	1129.48
704.907	1158.35
705.1	1192.64
705.292	1185.67
705.484	1193.42
705.677	1251.16
705.869	1253.67
706.061	1266.85
706.254	1300.37
706.446	1282.35
706.638	1257.16
706.831	1351.9
707.023	1292.81
707.215	1356.17
707.407	1364.5
707.599	1362.95
707.792	1406.73
707.984	1362.17
708.176	1412.35
708.368	1400.92
708.56	1408.48
708.752	1416.03
708.944	1392.98
709.136	1450.33
709.329	1442.96
709.521	1550.49
709.713	1504.19
709.905	1519.49
710.097	1539.84
710.289	1493.34
710.481	1561.73
710.672	1564.06
710.864	1576.84
711.056	1602.03
711.248	1619.47
711.44	1597.58
711.632	1637.1
711.824	1656.67
712.016	1693.29
712.207	1682.63
712.399	1689.8
712.591	1743.08
712.783	1720.02
712.975	1724.67
713.166	1699.1
713.358	1736.88
713.55	1792.48
713.741	1782.41
713.933	1801.59
714.125	1779.31
714.316	1770.4
714.508	1866.69
714.7	1858.94
714.891	1848.67
715.083	1925.4
715.274	1860.88
715.466	1844.22
715.657	1878.51
715.849	1810.31
716.04	1850.42
716.232	1799.27
716.423	1870.37
716.615	1789
716.806	1761.87
716.998	1759.16
717.189	1665.19
717.381	1623.54
717.572	1555.73
717.763	1613.66
717.955	1597.38
718.146	1550.11
718.337	1498.18
718.528	1499.73
718.72	1409.45
718.911	1509.23
719.102	1464.47
719.293	1532.86
719.485	1456.72
719.676	1460.79
719.867	1454.4
720.058	1451.1
720.249	1454.01
720.44	1521.63
720.632	1551.27
720.823	1590.6
721.014	1688.64
721.205	1719.44
721.396	1771.17
721.587	1891.1
721.778	1896.53
721.969	1948.06
722.16	2059.86
722.351	2033.12
722.542	2118.56
722.733	2153.44
722.924	2042.22
723.115	2113.33
723.305	2087.95
723.496	2085.04
723.687	1988.94
723.878	2015.68
724.069	1972.28
724.26	2031.18
724.45	1946.32
724.641	1984.68
724.832	1959.88
725.023	1985.46
725.213	1975.96
725.404	1998.44
725.595	1962.01
725.785	1987.01
725.976	2052.69
726.167	2016.84
726.357	2047.07
726.548	2142.78
726.739	2054.24
726.929	2098.99
727.12	2154.02
727.31	2186.95
727.501	2103.84
727.691	2134.64
727.882	2189.47
728.072	2190.44
728.263	2165.45
728.453	2238.68
728.644	2232.1
728.834	2234.03
729.024	2204.2
729.215	2201.49
729.405	2289.25
729.596	2334.2
729.786	2322.58
729.976	2364.81
730.167	2401.04
730.357	2295.07
730.547	2369.27
730.737	2371.01
730.928	2426.04
731.118	2457.23
731.308	2403.76
731.498	2416.35
731.688	2502.76
731.879	2523.49
732.069	2524.85
732.259	2630.25
732.449	2669.38
732.639	2736.62
732.829	2725.18
733.019	2775.36
733.209	2848.99
733.399	2866.43
733.589	2980.16
733.779	2960.78
733.969	2959.23
734.159	3017.55
734.349	3055.72
734.539	3119.85
734.729	3087.49
734.919	3139.03
735.109	3162.08
735.299	3090.78
735.488	3161.5
735.678	3153.17
735.868	3153.37
736.058	3158.6
736.248	3156.66
736.437	3122.95
736.627	3105.7
736.817	3261.09
737.007	3200.83
737.196	3270.39
737.386	3274.46
737.576	3181.65
737.765	3291.31
737.955	3258.76
738.144	3368.04
738.334	3321.15
738.524	3296.16
738.713	3346.73
738.903	3334.71
739.092	3404.66
739.282	3369.39
739.471	3382.37
739.661	3379.47
739.85	3454.64
740.04	3409.11
740.229	3442.05
740.419	3534.85
740.608	3480.41
740.797	3473.82
740.987	3557.52
741.176	3520.52
741.365	3482.15
741.555	3448.25
741.744	3577.67
741.933	3527.49
742.123	3538.53
742.312	3603.05
742.501	3647.61
742.69	3622.23
742.88	3524.78
743.069	3668.15
743.258	3648
743.447	3653.23
743.636	3668.93
743.825	3664.28
744.014	3669.7
744.204	3680.55
744.393	3640.06
744.582	3703.03
744.771	3718.14
744.96	3704.58
745.149	3745.46
745.338	3643.55
745.527	3724.53
745.716	3716.98
745.905	3728.41
746.094	3744.88
746.283	3759.21
746.471	3757.08
746.66	3825.86
746.849	3769.29
747.038	3832.06
747.227	3746.43
747.416	3809.78
747.604	3758.24
747.793	3799.12
747.982	3763.09
748.171	3830.32
748.359	3806.87
748.548	3784.59
748.737	3787.11
748.926	3779.75
749.114	3637.73
749.303	3795.06
749.491	3747.78
749.68	3684.62
749.869	3774.52
750.057	3756.5
750.246	3714.84
750.434	3713.88
750.623	3730.15
750.811	3704.19
751	3803.77
751.188	3666.8
751.377	3730.15
751.565	3689.27
751.754	3699.73
751.942	3688.3
752.131	3743.13
752.319	3715.81
752.507	3677.45
752.696	3719.49
752.884	3763.28
753.072	3659.63
753.261	3754.18
753.449	3702.44
753.637	3682.68
753.825	3768.9
754.014	3706.9
754.202	3681.91
754.39	3708.06
754.578	3758.63
754.766	3690.63
754.955	3627.27
755.143	3722.01
755.331	3668.73
755.519	3713.1
755.707	3672.61
755.895	3686.36
756.083	3688.69
756.271	3652.26
756.459	3652.46
756.647	3682.1
756.835	3635.6
757.023	3602.47
757.211	3645.68
757.399	3581.93
757.587	3593.75
757.775	3552.48
757.963	3551.9
758.151	3585.81
758.339	3543.77
758.526	3545.32
758.714	3568.37
758.902	3473.05
759.09	3297.51
759.278	3104.15
759.465	2842.98
759.653	2493.46
759.841	2298.94
760.028	1914.55
760.216	1686.89
760.404	1582.46
760.591	1278.28
760.779	1084.73
760.967	942.52
761.154	805.73
761.342	826.65
761.529	801.66
761.717	861.34
761.905	828.4
762.092	942.71
762.28	892.34
762.467	883.04
762.655	791.01
762.842	811.54
763.029	822.59
763.217	843.12
763.404	839.05
763.592	834.79
763.779	789.84
763.966	883.23
764.154	927.02
764.341	972.55
764.528	956.85
764.716	1038.61
764.903	1129.68
765.09	1161.26
765.277	1234.88
765.465	1392.01
765.652	1443.35
765.839	1528.99
766.026	1702.2
766.213	1745.02
766.4	1808.95
766.588	2004.25
766.775	2078.07
766.962	2148.2
767.149	2235.97
767.336	2407.44
767.523	2410.34
767.71	2483.77
767.897	2650.78
768.084	2736.62
768.271	2724.6
768.458	2837.17
768.645	2888.13
768.832	2887.35
769.019	2921.64
769.206	2970.47
769.392	3064.24
769.579	3145.42
769.766	3084.2
769.953	3048.94
770.14	3130.5
770.327	3084.78
770.513	3165.38
770.7	3207.61
770.887	3132.44
771.073	3196.38
771.26	3170.22
771.447	3142.71
771.634	3142.52
771.82	3237.84
772.007	3138.45
772.193	3204.32
772.38	3193.28
772.567	3187.66
772.753	3188.82
772.94	3269.42
773.126	3266.71
773.313	3221.95
773.499	3212.65
773.686	3243.65
773.872	3161.12
774.059	3207.61
774.245	3161.12
774.432	3161.12
774.618	3129.73
774.804	3171.77
774.991	3106.67
775.177	3172.55
775.363	3143.29
775.55	3179.33
775.736	3115.2
775.922	3171.58
776.109	3155.5
776.295	3162.67
776.481	3173.32
776.667	3173.71
776.853	3151.62
777.04	3095.63
777.226	3127.21
777.412	3190.56
777.598	3070.44
777.784	3058.82
777.97	3102.02
778.156	3104.73
778.342	3038.47
778.528	3044.67
778.715	3030.34
778.901	3026.65
779.087	3048.74
779.272	3027.04
779.458	3007.28
779.644	3020.84
779.83	3028.4
780.016	3096.98
780.202	3022
780.388	3020.84
780.574	2970.08
780.76	2967.17
780.946	3023.55
781.131	2991.39
781.317	2974.54
781.503	2991.01
781.689	2954.39
781.874	3050.29
782.06	2922.03
782.246	2955.74
782.432	2927.84
782.617	2954
782.803	2999.34
782.989	2863.13
783.174	2931.72
783.36	2852.67
783.545	2923.39
783.731	2905.56
783.916	2793.38
784.102	2910.79
784.288	2878.83
784.473	2849.18
784.659	2812.76
784.844	2856.54
785.029	2834.26
785.215	2839.3
785.4	2799.39
785.586	2906.73
785.771	2763.55
785.956	2842.59
786.142	2809.85
786.327	2787.96
786.512	2790.86
786.698	2792.61
786.883	2736.81
787.068	2727.32
787.254	2758.51
787.439	2753.08
787.624	2698.06
787.809	2718.6
787.994	2707.55
788.18	2767.81
788.365	2634.32
788.55	2655.63
788.735	2683.53
788.92	2661.63
789.105	2623.27
789.29	2668.61
789.475	2591.11
789.66	2592.47
789.845	2574.84
790.03	2583.36
790.215	2612.62
790.4	2630.05
790.585	2624.44
790.77	2585.3
790.955	2502.18
791.14	2574.64
791.325	2637.8
791.51	2506.83
791.695	2577.55
791.879	2587.43
792.064	2510.51
792.249	2604.48
792.434	2545
792.618	2564.57
792.803	2591.89
792.988	2546.16
793.173	2541.51
793.357	2618.62
793.542	2516.13
793.727	2560.11
793.911	2591.3
794.096	2559.14
794.281	2561.86
794.465	2653.88
794.65	2551.39
794.834	2634.12
795.019	2659.89
795.203	2624.82
795.388	2622.11
795.572	2678.1
795.757	2586.85
795.941	2625.79
796.126	2562.05
796.31	2512.06
796.494	2613.97
796.679	2528.72
796.863	2530.66
797.048	2635.87
797.232	2585.3
797.416	2573.48
797.601	2602.35
797.785	2642.84
797.969	2666.28
798.153	2606.8
798.338	2644.97
798.522	2671.32
798.706	2663.77
798.89	2657.37
799.074	2792.61
799.258	2676.75
799.443	2646.72
799.627	2628.89
799.811	2675.78
799.995	2620.56
800.179	2578.32
800.363	2600.99
800.547	2650.01
800.731	2617.27
800.915	2542.87
801.099	2581.04
801.283	2608.74
801.467	2610.49
801.651	2594.21
801.835	2640.32
802.019	2644.2
802.202	2660.47
802.386	2589.95
802.57	2541.32
802.754	2597.12
802.938	2558.37
803.121	2561.08
803.305	2648.46
803.489	2566.31
803.673	2626.76
803.856	2587.24
804.04	2577.16
804.224	2617.46
804.407	2584.33
804.591	2570.77
804.775	2594.6
804.958	2593.63
805.142	2706.39
805.326	2637.42
805.509	2637.22
805.693	2653.3
805.876	2674.42
806.06	2587.82
806.243	2600.6
806.427	2689.73
806.61	2683.33
806.794	2612.81
806.977	2672.48
807.16	2652.53
807.344	2651.17
807.527	2602.35
807.71	2612.81
807.894	2595.57
808.077	2650.2
808.26	2598.28
808.444	2539.57
808.627	2613.97
808.81	2566.89
808.993	2523.11
809.177	2519.23
809.36	2520.59
809.543	2532.99
809.726	2437.86
809.909	2412.86
810.092	2440.38
810.276	2463.43
810.459	2442.31
810.642	2431.08
810.825	2362.49
811.008	2407.05
811.191	2312.89
811.374	2342.15
811.557	2325.48
811.74	2389.23
811.923	2287.32
812.106	2257.87
812.289	2247.4
812.472	2248.18
812.654	2248.18
812.837	2195.29
813.02	2135.8
813.203	2160.22
813.386	1999.79
813.569	2029.24
813.751	1967.44
813.934	1993.01
814.117	1970.15
814.3	1942.25
814.482	1880.25
814.665	1854.29
814.848	1806.43
815.03	1779.12
815.213	1777.57
815.396	1733.2
815.578	1740.17
815.761	1699.68
815.943	1746.37
816.126	1639.42
816.309	1595.44
816.491	1590.79
816.674	1529.96
816.856	1560.38
817.039	1563.67
817.221	1646.21
817.403	1535.19
817.586	1596.99
817.768	1574.71
817.951	1516.59
818.133	1513.1
818.315	1540.03
818.498	1597.38
818.68	1630.71
818.862	1604.55
819.045	1702.39
819.227	1633.81
819.409	1624.89
819.591	1668.1
819.774	1606.29
819.956	1603.97
820.138	1694.64
820.32	1657.44
820.502	1698.32
820.684	1801.78
820.866	1776.6
821.048	1828.33
821.231	1835.69
821.413	1844.99
821.595	1787.64
821.777	1852.55
821.959	1838.79
822.141	1889.36
822.323	1729.71
822.505	1671.97
822.686	1613.46
822.868	1554.56
823.05	1445.87
823.232	1426.5
823.414	1371.28
823.596	1422.82
823.778	1428.82
823.96	1445.1
824.141	1466.99
824.323	1475.71
824.505	1567.35
824.687	1616.56
824.868	1677.79
825.05	1735.91
825.232	1787.45
825.413	1860.68
825.595	1798.88
825.777	1717.7
825.958	1770.59
826.14	1756.84
826.321	1819.03
826.503	1767.3
826.685	1819.42
826.866	1810.12
827.048	1795.58
827.229	1751.41
827.411	1702.78
827.592	1628.57
827.773	1673.33
827.955	1597.19
828.136	1627.99
828.318	1576.07
828.499	1628.19
828.68	1563.28
828.862	1605.71
829.043	1620.63
829.224	1603.58
829.406	1571.42
829.587	1578.2
829.768	1568.32
829.949	1606.1
830.131	1581.69
830.312	1650.27
830.493	1584.01
830.674	1652.6
830.855	1596.99
831.036	1597.38
831.218	1654.92
831.399	1682.63
831.58	1619.86
831.761	1598.35
831.942	1660.35
832.123	1619.66
832.304	1549.72
832.485	1585.76
832.666	1600.48
832.847	1640.97
833.028	1625.86
833.209	1595.83
833.389	1561.54
833.57	1515.81
833.751	1572.97
833.932	1630.12
834.113	1580.33
834.294	1604.94
834.475	1629.16
834.655	1635.74
834.836	1655.31
835.017	1651.05
835.198	1586.14
835.378	1664.42
835.559	1706.65
835.74	1654.34
835.92	1624.7
836.101	1630.51
836.281	1645.62
836.462	1661.12
836.643	1659.19
836.823	1695.22
837.004	1706.85
837.184	1697.74
837.365	1713.24
837.545	1705.49
837.726	1683.02
837.906	1742.3
838.087	1651.82
838.267	1675.46
838.448	1680.11
838.628	1680.31
838.808	1712.47
838.989	1711.11
839.169	1651.63
839.349	1675.07
839.53	1731.26
839.71	1719.83
839.89	1657.25
840.07	1724.29
840.251	1683.6
840.431	1737.65
840.611	1666.36
840.791	1677.98
840.971	1700.84
841.151	1682.82
841.332	1665
841.512	1727.77
841.692	1636.91
841.872	1665.58
842.052	1673.91
842.232	1702.97
842.412	1611.91
842.592	1639.42
842.772	1659.19
842.952	1670.62
843.132	1653.18
843.312	1627.02
843.492	1621.79
843.672	1697.35
843.851	1586.14
844.031	1653.96
844.211	1654.92
844.391	1647.56
844.571	1647.56
844.751	1637.1
844.93	1650.08
845.11	1609.59
845.29	1647.17
845.47	1624.31
845.649	1650.66
845.829	1605.71
846.009	1626.44
846.188	1648.72
846.368	1604.16
846.547	1611.33
846.727	1657.44
846.907	1571.61
847.086	1641.36
847.266	1662.87
847.445	1625.67
847.625	1619.86
847.804	1572
847.984	1632.64
848.163	1579.75
848.343	1575.1
848.522	1616.95
848.701	1640.01
848.881	1570.84
849.06	1586.53
849.239	1598.16
849.419	1589.44
849.598	1528.79
849.777	1529.96
849.957	1473.96
850.136	1438.12
850.315	1452.07
850.494	1439.28
850.674	1481.33
850.853	1497.41
851.032	1457.69
851.211	1520.27
851.39	1477.84
851.569	1437.54
851.748	1441.8
851.927	1452.85
852.107	1460.79
852.286	1484.62
852.465	1428.63
852.644	1476.68
852.823	1471.06
853.002	1503.8
853.181	1450.13
853.359	1482.3
853.538	1422.23
853.717	1478.03
853.896	1385.42
854.075	1292.42
854.254	1286.61
854.433	1275.95
854.611	1290.29
854.79	1235.85
854.969	1329.43
855.148	1320.13
855.327	1275.95
855.505	1314.9
855.684	1316.25
855.863	1325.94
856.041	1330.01
856.22	1368.57
856.399	1292.62
856.577	1451.68
856.756	1413.32
856.934	1476.1
857.113	1510.78
857.291	1421.07
857.47	1380.97
857.648	1419.13
857.827	1393.95
858.005	1459.82
858.184	1419.13
858.362	1503.41
858.541	1391.04
858.719	1389.3
858.898	1384.26
859.076	1367.98
859.254	1443.35
859.433	1379.03
859.611	1321.49
859.789	1343.18
859.967	1445.1
860.146	1451.3
860.324	1352.1
860.502	1366.05
860.68	1308.89
860.859	1315.87
861.037	1368.18
861.215	1349.38
861.393	1379.03
861.571	1372.83
861.749	1316.06
861.927	1381.35
862.105	1373.02
862.283	1344.54
862.461	1347.25
862.639	1291.65
862.817	1313.15
862.995	1353.07
863.173	1325.55
863.351	1320.13
863.529	1340.47
863.707	1344.54
863.885	1334.47
864.063	1267.24
864.241	1331.17
864.418	1358.3
864.596	1284.48
864.774	1290.68
864.952	1311.99
865.129	1325.55
865.307	1300.95
865.485	1223.84
865.663	1305.21
865.84	1199.04
866.018	1239.92
866.196	1136.84
866.373	1124.64
866.551	1103.71
866.728	1079.3
866.906	1109.53
867.084	1130.26
867.261	1151.38
867.439	1170.94
867.616	1204.46
867.794	1172.69
867.971	1175.01
868.149	1194.58
868.326	1228.68
868.503	1211.63
868.681	1230.62
868.858	1175.21
869.035	1162.23
869.213	1242.63
869.39	1174.43
869.567	1275.18
869.745	1190.12
869.922	1214.34
870.099	1220.16
870.276	1249.02
870.454	1201.94
870.631	1224.81
870.808	1195.16
870.985	1244.18
871.162	1262.97
871.339	1216.67
871.517	1157.77
871.694	1149.83
871.871	1202.33
872.048	1164.74
872.225	1179.08
872.402	1158.93
872.579	1151.76
872.756	1197.1
872.933	1129.48
873.11	1158.74
873.287	1169.59
873.463	1145.37
873.64	1104.68
873.817	1157.19
873.994	1147.89
874.171	1112.63
874.348	1122.7
874.524	1078.14
874.701	1129.29
874.878	1090.15
875.055	1149.24
875.231	1106.23
875.408	1159.51
875.585	1074.65
875.762	1105.65
875.938	1064.96
876.115	1088.02
876.291	1099.45
876.468	1104.29
876.645	1055.47
876.821	1067.68
876.998	1077.36
877.174	1088.6
877.351	1094.8
877.527	1049.27
877.704	1060.31
877.88	1073.3
878.057	1037.65
878.233	1101.78
878.409	1051.01
878.586	1072.71
878.762	1062.25
878.938	1065.93
879.115	972.16
879.291	1047.14
879.467	1025.63
879.644	1015.56
879.82	1052.56
879.996	1017.11
880.172	958.79
880.349	1019.05
880.525	1059.93
880.701	971.19
880.877	1026.41
881.053	1003.93
881.229	1036.68
881.405	1035.71
881.581	966.54
881.757	1043.07
881.933	1039
882.109	1057.6
882.285	1003.16
882.461	965.57
882.637	995.99
882.813	986.11
882.989	995.02
883.165	1042.1
883.341	961.89
883.517	1047.91
883.693	1039.78
883.869	1023.89
884.044	1018.66
884.22	1044.23
884.396	1042.68
884.572	1037.84
884.747	1022.73
884.923	989.98
885.099	1035.9
885.275	1052.95
885.45	987.66
885.626	1000.45
885.801	956.66
885.977	1002.19
886.153	963.83
886.328	1012.07
886.504	970.42
886.679	1009.55
886.855	991.34
887.03	1040.55
887.206	1055.47
887.381	1007.42
887.557	1018.46
887.732	1011.49
887.908	1006.26
888.083	1005.87
888.258	1003.16
888.434	980.3
888.609	989.21
888.784	1006.84
888.96	999.86
889.135	959.95
889.31	982.82
889.485	999.67
889.661	1001.61
889.836	1034.16
890.011	1002
890.186	986.3
890.361	954.53
890.537	999.09
890.712	1006.65
890.887	1013.81
891.062	986.88
891.237	1051.21
891.412	989.4
891.587	985.33
891.762	1031.25
891.937	1025.63
892.112	980.68
892.287	949.88
892.462	946
892.637	910.55
892.812	925.66
892.987	931.47
893.161	918.1
893.336	893.5
893.511	906.28
893.686	872.57
893.861	919.27
894.035	905.51
894.21	902.41
894.385	843.9
894.56	895.05
894.734	811.54
894.909	791.97
895.084	822
895.258	796.04
895.433	844.09
895.608	758.65
895.782	751.29
895.957	745.28
896.131	791.39
896.306	690.45
896.48	705.76
896.655	710.21
896.829	664.49
897.004	643.95
897.178	679.02
897.353	637.56
897.527	695.88
897.701	677.28
897.876	608.88
898.05	691.81
898.224	676.89
898.399	715.83
898.573	650.54
898.747	526.73
898.921	615.28
899.096	508.91
899.27	540.88
899.444	532.35
899.618	573.43
899.792	584.08
899.967	577.69
900.141	575.56
900.315	530.61
900.489	567.61
900.663	587.18
900.837	564.13
901.011	537.78
901.185	613.34
901.359	608.11
901.533	592.41
901.707	583.7
901.881	537.39
902.055	533.32
902.229	572.85
902.403	615.28
902.576	579.63
902.75	595.51
902.924	698.59
903.098	619.15
903.272	651.51
903.446	712.54
903.619	678.83
903.793	732.11
903.967	678.83
904.14	741.41
904.314	750.32
904.488	741.02
904.661	741.99
904.835	717.38
905.009	758.26
905.182	774.92
905.356	754.19
905.529	747.8
905.703	733.07
905.876	695.1
906.05	676.69
906.223	637.95
906.397	581.95
906.57	587.76
906.744	591.83
906.917	578.27
907.09	568.39
907.264	574.78
907.437	534.87
907.61	519.76
907.784	520.15
907.957	539.33
908.13	489.53
908.304	537.78
908.477	532.35
908.65	506.58
908.823	471.13
908.996	562
909.17	490.7
909.343	489.15
909.516	509.3
909.689	489.73
909.862	463.77
910.035	495.54
910.208	476.36
910.381	467.64
910.554	569.75
910.727	502.9
910.9	511.23
911.073	500
911.246	550.76
911.419	542.82
911.592	513.95
911.765	504.45
911.938	481.4
912.11	512.98
912.283	490.7
912.456	562.38
912.629	525.96
912.802	501.35
912.974	446.14
913.147	427.34
913.32	373.67
913.493	393.24
913.665	414.94
913.838	432.77
914.01	400.99
914.183	431.02
914.356	451.37
914.528	487.02
914.701	502.13
914.873	505.42
915.046	424.24
915.218	424.63
915.391	350.04
915.563	356.82
915.736	425.4
915.908	438.19
916.081	450.59
916.253	421.34
916.425	431.6
916.598	472.29
916.77	414.75
916.942	399.83
917.115	347.52
917.287	421.53
917.459	368.25
917.632	367.67
917.804	300.05
917.976	391.3
918.148	393.82
918.32	427.15
918.493	445.17
918.665	492.05
918.837	435.29
919.009	482.95
919.181	464.74
919.353	441.87
919.525	451.56
919.697	479.65
919.869	464.74
920.041	506
920.213	582.92
920.385	506.58
920.557	474.03
920.729	462.8
920.901	458.92
921.073	448.65
921.244	463.38
921.416	509.3
921.588	449.04
921.76	432.38
921.932	506.39
922.103	444.97
922.275	469
922.447	477.72
922.619	393.44
922.79	481.98
922.962	439.35
923.134	457.37
923.305	398.47
923.477	372.32
923.648	379.49
923.82	395.57
923.991	366.12
924.163	367.09
924.335	373.48
924.506	378.32
924.677	432.19
924.849	376.97
925.02	426.95
925.192	410.87
925.363	401.19
925.535	374.84
925.706	407.58
925.877	424.24
926.049	356.82
926.22	400.02
926.391	402.35
926.562	432.38
926.734	372.9
926.905	401.57
927.076	347.91
927.247	363.99
927.419	336.09
927.59	306.44
927.761	317.49
927.932	323.69
928.103	333.37
928.274	273.12
928.445	267.5
928.616	290.36
928.787	289.78
928.958	280.68
929.129	276.61
929.3	282.81
929.471	230.49
929.642	191.36
929.813	155.71
929.984	243.67
930.155	143.7
930.326	203.56
930.496	173.34
930.667	138.08
930.838	181.09
931.009	146.21
931.18	144.28
931.35	146.6
931.521	149.31
931.692	123.74
931.863	77.82
932.033	112.31
932.204	102.43
932.374	133.81
932.545	79.18
932.716	135.36
932.886	123.55
933.057	46.24
933.227	46.43
933.398	140.01
933.568	74.92
933.739	13.69
933.909	57.48
934.08	94.48
934.25	28.61
934.421	39.46
934.591	79.95
934.761	28.03
934.932	14.85
935.102	32.29
935.272	34.23
935.443	36.17
935.613	-0.06
935.783	70.07
935.953	11.75
936.123	160.36
936.294	36.75
936.464	32.29
936.634	25.12
936.804	13.69
936.974	-7.81
937.144	71.23
937.314	52.05
937.484	8.85
937.655	16.02
937.825	80.53
937.995	20.86
938.165	81.7
938.334	44.88
938.504	80.15
938.674	34.03
938.844	64.84
939.014	130.33
939.184	107.47
939.354	132.85
939.524	113.47
939.694	91.58
939.863	86.54
940.033	164.43
940.203	133.43
940.373	98.17
940.542	145.63
940.712	81.7
940.882	121.8
941.051	120.64
941.221	109.4
941.391	160.75
941.56	92.55
941.73	65.23
941.899	188.26
942.069	98.55
942.238	110.57
942.408	69.49
942.577	102.23
942.747	71.62
942.916	42.56
943.086	71.23
943.255	114.63
943.425	96.62
943.594	61.55
943.763	30.55
943.933	40.04
944.102	14.85
944.271	80.92
944.441	82.08
944.61	51.28
944.779	55.35
944.948	163.07
945.117	34.81
945.287	57.28
945.456	11.37
945.625	24.54
945.794	74.33
945.963	48.57
946.132	92.55
946.301	64.65
946.47	98.36
946.639	34.42
946.808	58.64
946.977	77.63
947.146	101.46
947.315	83.05
947.484	92.74
947.653	46.24
947.822	37.13
947.991	70.27
948.16	144.86
948.329	117.93
948.498	67.17
948.666	67.17
948.835	104.95
949.004	35.78
949.173	22.8
949.341	73.56
949.51	71.04
949.679	106.69
949.847	75.88
950.016	126.84
950.185	107.66
950.353	62.9
950.522	67.75
950.69	114.25
950.859	48.57
951.028	129.55
951.196	61.35
951.365	59.22
951.533	78.98
951.701	97.78
951.87	92.16
952.038	56.51
952.207	52.83
952.375	121.22
952.543	35.58
952.712	83.05
952.88	70.07
953.048	148.15
953.217	70.27
953.385	99.52
953.553	134.98
953.721	51.67
953.89	74.33
954.058	28.22
954.226	53.8
954.394	68.72
954.562	18.34
954.73	68.13
954.898	53.02
955.067	117.73
955.235	64.26
955.403	109.02
955.571	115.99
955.739	71.82
955.907	50.12
956.075	41.59
956.243	62.9
956.41	72.2
956.578	28.8
956.746	20.09
956.914	74.53
957.082	111.73
957.25	103.98
957.418	58.25
957.585	97
957.753	125.1
957.921	36.36
958.089	83.63
958.256	111.15
958.424	87.32
958.592	95.65
958.759	52.63
958.927	103.59
959.095	68.52
959.262	65.42
959.43	60.77
959.597	52.83
959.765	60.19
959.932	50.12
960.1	116.38
960.267	84.6
960.435	84.41
960.602	107.08
960.77	39.27
960.937	22.41
961.104	94.29
961.272	27.64
961.439	52.25
961.606	65.81
961.774	98.36
961.941	55.15
962.108	70.46
962.275	97.39
962.443	98.17
962.61	81.5
962.777	142.73
962.944	118.7
963.111	98.36
963.278	91.38
963.446	87.51
963.613	100.68
963.78	115.22
963.947	137.3
964.114	107.27
964.281	159.39
964.448	116.38
964.615	69.88
964.782	124.51
964.949	140.79
965.116	100.88
965.282	117.73
965.449	77.05
965.616	61.16
965.783	139.63
965.95	96.03
966.117	68.33
966.283	78.6
966.45	105.14
966.617	107.08
966.784	149.12
966.95	127.03
967.117	122
967.284	70.65
967.45	85.57
967.617	110.37
967.784	114.44
967.95	167.53
968.117	102.82
968.283	177.41
968.45	178.38
968.616	117.15
968.783	142.34
968.949	151.83
969.116	143.31
969.282	105.33
969.449	124.71
969.615	128
969.781	70.07
969.948	94.1
970.114	99.91
970.28	180.7
970.447	131.49
970.613	139.05
970.779	105.72
970.945	130.13
971.112	117.54
971.278	110.95
971.444	90.8
971.61	142.53
971.776	104.95
971.942	128.97
972.108	127.61
972.275	95.45
972.441	136.72
972.607	137.11
972.773	68.52
972.939	107.27
973.105	102.43
973.271	52.25
973.437	63.29
973.602	88.48
973.768	93.71
973.934	115.02
974.1	124.32
974.266	42.37
974.432	133.23
974.598	75.88
974.763	140.21
974.929	84.8
975.095	164.62
975.261	76.66
975.426	76.66
975.592	85.57
975.758	166.56
975.923	54.18
976.089	63.29
976.255	91.77
976.42	123.16
976.586	112.89
976.751	112.7
976.917	174.5
977.082	110.37
977.248	63.68
977.413	53.22
977.579	100.3
977.744	95.65
977.91	58.83
978.075	89.64
978.24	133.81
978.406	80.15
978.571	69.1
978.736	78.02
978.902	108.24
979.067	63.29
979.232	43.92
979.397	107.85
979.563	162.1
979.728	61.16
979.893	79.57
980.058	86.54
980.223	104.75
980.388	131.1
980.554	96.81
980.719	85.57
980.884	122
981.049	134.2
981.214	88.87
981.379	116.96
981.544	82.08
981.709	88.28
981.874	71.62
982.039	81.89
982.204	114.83
982.368	123.35
982.533	81.31
982.698	134.59
982.863	136.14
983.028	85.38
983.193	105.53
983.357	99.52
983.522	87.7
983.687	88.09
983.852	99.52
984.016	88.09
984.181	103.78
984.346	101.85
984.51	125.48
984.675	100.68
984.839	129.75
985.004	111.73
985.168	129.75
985.333	113.08
985.498	97.78
985.662	117.35
985.827	106.88
985.991	85.18
986.155	65.03
986.32	117.15
986.484	136.91
986.649	94.87
986.813	69.88
986.977	96.03
987.142	112.12
987.306	74.14
987.47	62.9
987.634	93.13
987.799	105.33
987.963	109.4
988.127	136.33
988.291	159.78
988.455	100.1
988.62	118.12
988.784	126.45
988.948	110.95
989.112	89.64
989.276	88.48
989.44	90.03
989.604	75.88
989.768	87.7
989.932	165.01
990.096	60
990.26	50.89
990.424	82.28
990.588	97.58
990.752	149.12
990.915	107.85
991.079	57.28
991.243	79.18
991.407	111.15
991.571	103.59
991.734	115.02
991.898	96.03
992.062	153.58
992.226	117.93
992.389	56.32
992.553	25.32
992.717	73.95
992.88	71.82
993.044	105.92
993.207	91.77
993.371	92.35
993.535	109.98
993.698	86.93
993.862	131.1
994.025	113.86
994.189	95.07
994.352	83.63
994.515	105.53
994.679	127.23
994.842	66.58
995.006	112.31
995.169	62.71
995.332	48.76
995.496	91.19
995.659	6.72
995.822	54.96
995.985	82.47
996.149	115.22
996.312	100.3
996.475	145.05
996.638	71.04
996.801	124.9
996.964	137.69
997.128	62.71
997.291	75.11
997.454	94.68
997.617	29.19
997.78	126.84
997.943	50.7
998.106	96.03
998.269	64.45
998.432	78.02
998.595	104.56
998.758	34.03
998.92	52.44
999.083	33.26
999.246	66.2
999.409	10.59
999.572	21.25
999.735	56.32
999.897	92.35
1000.06	47.6
1000.223	74.53
1000.386	110.37
1000.548	101.65
1000.711	76.66
1000.874	77.43
1001.036	25.32
1001.199	102.23
1001.361	34.03
1001.524	61.93
1001.687	103.78
1001.849	33.07
1002.012	92.55
1002.174	73.75
1002.337	108.82
1002.499	56.7
1002.661	105.14
1002.824	40.82
1002.986	45.08
1003.149	65.23
1003.311	26.67
1003.473	108.63
1003.636	49.73
1003.798	96.62
1003.96	97.97
1004.123	56.9
1004.285	65.03
1004.447	58.64
1004.609	62.9
1004.771	119.86
1004.933	31.9
1005.096	30.93
1005.258	8.65
1005.42	35.97
1005.582	79.57
1005.744	63.1
1005.906	-4.33
1006.068	69.68
1006.23	6.33
1006.392	10.79
1006.554	45.85
1006.716	91.58
1006.878	72.78
1007.04	28.8
1007.202	26.48
1007.363	67.75
1007.525	69.3
1007.687	80.92
1007.849	76.27
1008.011	20.86
1008.172	2.65
1008.334	45.27
1008.496	57.48
1008.658	22.8
1008.819	22.99
1008.981	35.97
1009.143	-0.45
1009.304	23.96
1009.466	87.32
1009.627	85.18
1009.789	139.82
1009.95	68.72
1010.112	37.91
1010.273	52.44
1010.435	25.7
1010.596	34.62
1010.758	28.03
1010.919	50.12
1011.081	-10.91
1011.242	40.62
1011.403	68.72
1011.565	69.1
1011.726	54.77
1011.887	0.52
1012.049	49.15
1012.21	77.24
1012.371	99.91
1012.532	-10.53
1012.693	44.3
1012.855	32.87
1013.016	65.81
1013.177	74.14
1013.338	50.5
1013.499	82.67
1013.66	90.03
1013.821	40.62
1013.982	50.89
1014.143	54.96
1014.304	17.18
1014.465	40.43
1014.626	65.81
1014.787	35.2
1014.948	117.15
1015.109	-4.33
1015.27	73.95
1015.431	10.98
1015.592	32.87
1015.752	76.47
1015.913	44.88
1016.074	53.6
1016.235	33.45
1016.395	50.12
1016.556	48.18
1016.717	19.5
1016.877	99.52
1017.038	46.43
1017.199	38.1
1017.359	49.53
1017.52	53.22
1017.681	34.42
1017.841	34.42
1018.002	23.77
1018.162	30.35
1018.323	82.86
1018.483	41.59
1018.644	48.57
1018.804	31.52
1018.964	-14.6
1019.125	19.89
1019.285	60.38
1019.446	13.89
1019.606	8.46
1019.766	-14.98
1019.926	51.47
1020.087	62.9
1020.247	-23.12
1020.407	55.35
1020.567	83.63
1020.728	28.03
1020.888	-17.7
1021.048	-7.81
1021.208	9.24
1021.368	-12.66
1021.528	70.65
1021.688	39.46
1021.848	70.27
1022.008	25.32
1022.168	30.74
1022.328	39.46
1022.488	50.12
1022.648	31.52
1022.808	23.19
1022.968	42.56
1023.128	-5.1
1023.288	3.04
1023.448	24.15
1023.608	48.37
1023.767	48.95
1023.927	-2.2
1024.087	6.14
1024.247	10.59
1024.406	15.82
1024.566	5.94
1024.726	-17.11
1024.885	21.83
1025.045	38.3
1025.205	9.04
1025.364	40.82
1025.524	26.09
1025.683	24.74
1025.843	68.13
1026.003	13.69
1026.162	57.48
1026.321	24.54
1026.481	27.06
1026.64	33.65
1026.8	43.53
1026.959	20.09
1027.119	2.45
1027.278	16.99
1027.437	-7.62
1027.597	19.89
1027.756	36.94
1027.915	26.29
1028.074	24.35
1028.234	4.97
1028.393	20.86
1028.552	16.21
1028.711	-24.48
1028.87	31.52
1029.03	-12.08
1029.189	34.42
1029.348	-17.11
1029.507	21.44
1029.666	10.01
1029.825	4.97
1029.984	7.3
1030.143	40.62
1030.302	-3.36
1030.461	-15.37
1030.62	18.92
1030.779	16.6
1030.938	4.2
1031.097	-15.37
1031.255	67.75
1031.414	70.85
1031.573	42.17
1031.732	-13.24
1031.891	15.63
1032.049	24.15
1032.208	17.95
1032.367	3.81
1032.525	28.42
1032.684	4.78
1032.843	25.9
1033.001	-22.93
1033.16	159.39
1033.319	54.38
1033.477	30.55
1033.636	16.02
1033.794	1.1
1033.953	34.81
1034.111	29.19
1034.27	3.42
1034.428	26.29
1034.587	-13.63
1034.745	5.55
1034.903	20.67
1035.062	39.46
1035.22	-14.98
1035.378	55.35
1035.537	-40.75
1035.695	51.08
1035.853	25.51
1036.011	7.88
1036.17	33.84
1036.328	-37.46
1036.486	15.44
1036.644	39.27
1036.802	-42.69
1036.96	13.3
1037.119	17.95
1037.277	-7.81
1037.435	4.78
1037.593	-20.8
1037.751	19.12
1037.909	59.42
1038.067	59.42
