Data from oakcork_FLMT105791__232__17-33-03-055.txt Node

Date: Mon Mar 20 17:33:03 GMT 2023
User: antho
Spectrometer: FLMT10579
Trigger mode: 0
Integration Time (sec): 1.000000E-1
Scans to average: 10
Electric dark correction enabled: true
Nonlinearity correction enabled: false
Boxcar width: 0
XAxis mode: Wavelengths
Number of Pixels in Spectrum: 3648
>>>>>Begin Spectral Data<<<<<
345.248	-162.93
345.464	-162.93
345.681	-162.93
345.898	-151.69
346.114	-158.47
346.331	-25.56
346.548	26.75
346.764	-13.35
346.981	-21.1
347.197	4.86
347.414	9.7
347.631	-5.41
347.847	56.2
348.064	6.8
348.28	17.45
348.497	-43.38
348.713	-12.96
348.93	31.02
349.146	6.6
349.363	8.73
349.579	28.69
349.796	3.89
350.012	14.16
350.229	15.9
350.445	15.9
350.661	-19.94
350.878	9.12
351.094	21.91
351.311	25.4
351.527	9.12
351.743	4.47
351.96	26.95
352.176	27.33
352.392	41.28
352.609	35.08
352.825	-7.93
353.041	11.64
353.257	3.12
353.474	-15.1
353.69	42.25
353.906	6.22
354.122	-13.16
354.339	53.1
354.555	3.5
354.771	19.78
354.987	84.88
355.203	39.54
355.42	8.54
355.636	-4.05
355.852	-0.57
356.068	20.55
356.284	-32.53
356.5	65.5
356.716	32.57
356.932	14.35
357.148	38.77
357.364	0.02
357.58	31.02
357.796	63.37
358.012	71.51
358.228	9.12
358.444	-15.1
358.66	71.7
358.876	28.3
359.092	-13.16
359.308	17.84
359.524	34.89
359.74	21.72
359.956	3.5
360.172	19.78
360.388	25.01
360.604	10.28
360.819	103.09
361.035	15.32
361.251	10.67
361.467	-13.55
361.683	52.72
361.898	34.89
362.114	57.75
362.33	31.4
362.546	54.46
362.762	23.46
362.977	28.88
363.193	13
363.409	40.12
363.624	1.37
363.84	14.35
364.056	20.55
364.271	36.44
364.487	39.15
364.703	-8.12
364.918	-15.48
365.134	22.3
365.35	21.13
365.565	134.86
365.781	19.78
365.996	66.67
366.212	67.44
366.427	45.16
366.643	18.42
366.858	21.33
367.074	12.8
367.289	53.68
367.505	94.37
367.72	-32.73
367.936	14.74
368.151	51.17
368.367	60.08
368.582	38.57
368.798	35.86
369.013	67.63
369.228	33.34
369.444	29.85
369.659	80.61
369.874	37.8
370.09	84.68
370.305	-15.48
370.52	17.65
370.736	85.46
370.951	24.04
371.166	72.28
371.381	88.56
371.597	48.45
371.812	11.45
372.027	5.44
372.242	16.87
372.458	62.98
372.673	24.62
372.888	11.45
373.103	40.9
373.318	114.52
373.533	56.01
373.749	23.46
373.964	-24.98
374.179	82.75
374.394	-4.83
374.609	92.05
374.824	0.6
375.039	66.28
375.254	29.47
375.469	72.87
375.684	46.13
375.899	92.63
376.114	45.35
376.329	59.69
376.544	67.05
376.759	74.61
376.974	19.97
377.189	31.79
377.404	18.03
377.619	24.04
377.834	-15.48
378.049	1.95
378.264	-0.37
378.478	40.32
378.693	14.74
378.908	72.48
379.123	25.98
379.338	81.78
379.553	81.39
379.767	27.72
379.982	58.33
380.197	71.12
380.412	39.15
380.626	43.03
380.841	123.24
381.056	65.89
381.271	118.2
381.485	38.96
381.7	-4.05
381.915	62.79
382.129	22.1
382.344	60.27
382.559	30.63
382.773	54.46
382.988	-11.61
383.202	39.15
383.417	15.13
383.632	112.39
383.846	31.79
384.061	24.04
384.275	25.2
384.49	78.1
384.704	83.91
384.919	85.07
385.133	38.57
385.348	99.8
385.562	31.98
385.777	95.73
385.991	61.24
386.206	26.56
386.42	21.52
386.634	95.73
386.849	85.07
387.063	44.58
387.277	-7.73
387.492	45.16
387.706	45.93
387.92	34.12
388.135	73.83
388.349	44.97
388.563	72.48
388.778	46.9
388.992	101.93
389.206	90.11
389.42	110.65
389.635	58.72
389.849	86.04
390.063	89.91
390.277	75.19
390.491	97.08
390.706	82.75
390.92	98.05
391.134	64.53
391.348	82.16
391.562	34.5
391.776	88.17
391.99	64.34
392.205	82.16
392.419	34.7
392.633	53.88
392.847	86.43
393.061	22.68
393.275	119.36
393.489	17.65
393.703	56.98
393.917	65.31
394.131	23.07
394.345	74.22
394.559	119.17
394.773	54.46
394.986	85.46
395.2	57.17
395.414	99.41
395.628	53.49
395.842	79.45
396.056	61.82
396.27	31.02
396.484	87.59
396.697	68.22
396.911	106.19
397.125	97.28
397.339	95.34
397.553	78.29
397.766	146.49
397.98	119.75
398.194	140.48
398.408	80.42
398.621	103.67
398.835	117.43
399.049	98.63
399.262	151.91
399.476	132.15
399.69	130.99
399.903	192.6
400.117	116.26
400.331	109.87
400.544	82.75
400.758	212.36
400.971	109.68
401.185	153.46
401.398	86.62
401.612	163.15
401.826	163.54
402.039	149.98
402.253	99.99
402.466	131.76
402.68	128.66
402.893	117.23
403.106	154.43
403.32	142.81
403.533	142.42
403.747	139.51
403.96	127.7
404.174	168.96
404.387	108.71
404.6	137.58
404.814	167.41
405.027	122.66
405.24	133.51
405.454	118.59
405.667	171.09
405.88	93.98
406.094	169.54
406.307	170.51
406.52	140.68
406.733	124.98
406.947	99.99
407.16	191.05
407.373	174.39
407.586	120.33
407.799	131.96
408.012	149.78
408.226	148.81
408.439	176.13
408.652	112.39
408.865	172.64
409.078	194.34
409.291	173.81
409.504	103.09
409.717	151.91
409.93	146.68
410.143	168.19
410.357	96.89
410.57	82.16
410.783	108.32
410.996	144.36
411.209	141.65
411.421	182.53
411.634	179.04
411.847	136.03
412.06	163.73
412.273	168.77
412.486	155.6
412.699	238.91
412.912	169.54
413.125	170.9
413.338	185.82
413.55	199.77
413.763	175.55
413.976	175.36
414.189	142.03
414.402	180.39
414.615	226.31
414.827	155.4
415.04	196.86
415.253	179.62
415.466	225.73
415.678	238.13
415.891	188.53
416.104	149.4
416.316	176.91
416.529	165.28
416.742	218.76
416.954	219.14
417.167	182.33
417.38	156.95
417.592	224.76
417.805	183.11
418.017	127.11
418.23	212.36
418.442	171.29
418.655	166.64
418.868	179.04
419.08	227.67
419.293	219.14
419.505	223.79
419.718	199.38
419.93	242.78
420.142	166.83
420.355	223.02
420.567	241.81
420.78	197.64
420.992	206.16
421.205	267.77
421.417	156.18
421.629	181.75
421.842	164.7
422.054	162.57
422.266	203.64
422.479	230.19
422.691	179.04
422.903	232.51
423.115	168.38
423.328	180.2
423.54	207.71
423.752	182.33
423.964	186.59
424.177	207.91
424.389	217.79
424.601	308.85
424.813	213.53
425.025	230.58
425.238	229.22
425.45	227.67
425.662	197.06
425.874	463.46
426.086	195.31
426.298	234.06
426.51	203.45
426.722	199.77
426.934	194.34
427.146	223.21
427.358	186.98
427.57	248.59
427.782	200.54
427.994	198.03
428.206	206.16
428.418	191.83
428.63	247.43
428.842	239.29
429.054	211.01
429.266	263.71
429.478	188.92
429.69	202.68
429.902	169.93
430.114	237.36
430.325	187.76
430.537	185.82
430.749	194.34
430.961	151.33
431.173	180.98
431.384	204.42
431.596	131.18
431.808	202.68
432.02	204.61
432.231	243.36
432.443	278.04
432.655	278.43
432.867	241.62
433.078	252.47
433.29	307.49
433.502	276.49
433.713	255.96
433.925	261.57
434.136	304.59
434.348	211.39
434.56	184.08
434.771	329
434.983	183.88
435.194	246.46
435.406	236.39
435.617	282.5
435.829	331.13
436.04	286.76
436.252	297.61
436.463	339.85
436.675	311.76
436.886	302.07
437.098	307.49
437.309	330.36
437.521	280.37
437.732	300.71
437.943	278.24
438.155	274.75
438.366	247.24
438.578	337.72
438.789	290.83
439	316.21
439.211	276.69
439.423	307.3
439.634	312.72
439.845	332.1
440.057	313.11
440.268	334.23
440.479	286.96
440.69	311.56
440.902	314.66
441.113	292.77
441.324	279.59
441.535	338.88
441.746	339.27
441.957	282.11
442.168	321.25
442.38	363.29
442.591	344.3
442.802	299.74
443.013	300.32
443.224	348.57
443.435	331.91
443.646	318.15
443.857	330.36
444.068	305.17
444.279	305.36
444.49	397.59
444.701	340.24
444.912	441.18
445.123	376.85
445.334	361.55
445.545	374.14
445.756	337.14
445.967	314.86
446.178	338.88
446.388	361.16
446.599	379.57
446.81	367.55
447.021	310.79
447.232	384.99
447.443	394.29
447.653	339.66
447.864	402.24
448.075	342.17
448.286	396.04
448.496	378.6
448.707	416.57
448.918	367.36
449.129	458.23
449.339	349.73
449.55	385.77
449.761	369.88
449.971	409.21
450.182	349.92
450.393	385.77
450.603	364.45
450.814	418.12
451.024	416.57
451.235	451.45
451.446	460.36
451.656	451.45
451.867	387.9
452.077	403.01
452.288	433.04
452.498	452.42
452.709	399.33
452.919	418.7
453.13	384.41
453.34	416.19
453.55	363.87
453.761	426.45
453.971	391.19
454.182	410.95
454.392	423.94
454.602	476.44
454.813	426.07
455.023	437.5
455.233	343.53
455.444	400.69
455.654	368.72
455.864	409.79
456.075	372.01
456.285	413.47
456.495	409.99
456.705	432.07
456.916	448.54
457.126	469.47
457.336	432.27
457.546	362.71
457.756	414.05
457.967	477.99
458.177	426.45
458.387	435.75
458.597	391.19
458.807	436.92
459.017	401.27
459.227	441.76
459.437	420.45
459.647	451.45
459.857	450.28
460.068	439.24
460.278	465.59
460.488	440.21
460.698	515.77
460.908	457.84
461.117	418.7
461.327	414.25
461.537	477.99
461.747	472.57
461.957	457.84
462.167	570.99
462.377	505.31
462.587	442.53
462.797	493.1
463.007	453.38
463.216	508.8
463.426	502.6
463.636	511.51
463.846	419.09
464.056	462.1
464.265	493.49
464.475	445.63
464.685	471.4
464.895	522.94
465.104	473.53
465.314	500.85
465.524	446.02
465.733	437.69
465.943	523.91
466.153	559.95
466.362	551.81
466.572	519.45
466.782	471.21
466.991	496.2
467.201	527.59
467.41	460.36
467.62	503.76
467.829	504.92
468.039	529.53
468.249	483.22
468.458	508.6
468.668	532.24
468.877	552.78
469.086	548.9
469.296	570.41
469.505	517.32
469.715	558.4
469.924	546.77
470.134	577.96
470.343	587.65
470.552	524.1
470.762	532.82
470.971	513.25
471.18	538.05
471.39	535.53
471.599	512.09
471.808	592.11
472.018	552.58
472.227	632.6
472.436	634.54
472.645	590.75
472.855	546.77
473.064	624.08
473.273	592.11
473.482	600.83
473.691	637.44
473.901	621.75
474.11	607.41
474.319	675.61
474.528	617.68
474.737	708.55
474.946	631.83
475.155	648.49
475.364	663.21
475.573	655.66
475.783	621.94
475.992	666.89
476.201	690.14
476.41	658.56
476.619	614.97
476.828	659.92
477.037	631.05
477.245	638.41
477.454	683.75
477.663	663.41
477.872	674.06
478.081	757.37
478.29	677.16
478.499	751.56
478.708	693.24
478.917	753.11
479.125	690.34
479.334	701.38
479.543	703.71
479.752	763.96
479.961	698.28
480.169	778.69
480.378	738
480.587	850.37
480.796	771.13
481.004	767.84
481.213	795.54
481.422	764.93
481.63	774.23
481.839	808.14
482.048	830.22
482.256	824.02
482.465	827.32
482.674	840.1
482.882	828.67
483.091	909.47
483.299	826.35
483.508	869.94
483.716	837.39
483.925	858.32
484.134	813.95
484.342	822.67
484.551	873.04
484.759	835.65
484.967	893.58
485.176	851.92
485.384	876.33
485.593	893.58
485.801	867.81
486.01	824.99
486.218	780.24
486.426	732.57
486.635	756.99
486.843	776.75
487.051	810.46
487.26	782.17
487.468	810.27
487.676	864.52
487.885	824.41
488.093	876.33
488.301	872.27
488.509	881.76
488.717	926.32
488.926	920.7
489.134	885.44
489.342	911.79
489.55	883.89
489.758	887.96
489.967	902.49
490.175	1019.13
490.383	930.39
490.591	1003.43
490.799	925.55
491.007	1002.46
491.215	982.51
491.423	954.41
491.631	938.14
491.839	989.29
492.047	984.06
492.255	946.86
492.463	909.85
492.671	947.63
492.879	975.73
493.087	941.63
493.295	1002.08
493.503	999.36
493.711	1007.7
493.919	1029.78
494.127	1075.31
494.334	1021.65
494.542	943.57
494.75	1044.7
494.958	980.57
495.166	1076.28
495.374	1061.17
495.581	1065.63
495.789	1066.01
495.997	1089.07
496.205	990.45
496.412	1010.41
496.62	1061.56
496.828	1046.06
497.035	1031.14
497.243	1079.19
497.451	1070.47
497.658	1083.06
497.866	1045.67
498.074	1116.39
498.281	1029.01
498.489	1159.21
498.696	1062.14
498.904	1052.06
499.112	1065.04
499.319	1133.44
499.527	1045.86
499.734	1119.68
499.942	1044.89
500.149	1073.96
500.357	1111.16
500.564	1050.13
500.771	1056.33
500.979	1046.44
501.186	1025.33
501.394	1078.22
501.601	1083.64
501.808	1112.32
502.016	1062.14
502.223	1068.73
502.43	1067.76
502.638	1078.61
502.845	1063.11
503.052	1163.27
503.26	1095.85
503.467	1158.04
503.674	1107.09
503.881	1103.21
504.089	1180.71
504.296	1100.5
504.503	1053.03
504.71	1085.58
504.917	1079.96
505.125	1125.11
505.332	1115.03
505.539	1127.63
505.746	1192.34
505.953	1174.32
506.16	1190.4
506.367	1221.59
506.574	1213.07
506.781	1225.47
506.988	1133.44
507.195	1177.42
507.402	1166.57
507.609	1171.61
507.816	1138.67
508.023	1155.52
508.23	1141.96
508.437	1118.71
508.644	1155.33
508.851	1192.34
509.058	1215.78
509.265	1208.81
509.472	1225.27
509.679	1283.79
509.885	1205.12
510.092	1223.34
510.299	1189.43
510.506	1189.24
510.713	1222.56
510.92	1199.89
511.126	1224.5
511.333	1289.79
511.54	1249.1
511.746	1272.94
511.953	1296.19
512.16	1287.08
512.367	1227.21
512.573	1233.22
512.78	1242.52
512.987	1226.63
513.193	1250.65
513.4	1171.8
513.606	1194.86
513.813	1262.09
514.02	1247.75
514.226	1293.67
514.433	1279.72
514.639	1185.36
514.846	1244.45
515.052	1227.6
515.259	1225.66
515.465	1228.37
515.672	1247.75
515.878	1308
516.085	1257.05
516.291	1283.79
516.497	1258.02
516.704	1238.84
516.91	1207.45
517.117	1143.32
517.323	1101.28
517.529	1149.91
517.736	1134.99
517.942	1176.26
518.148	1182.26
518.354	1196.02
518.561	1203.57
518.767	1241.55
518.973	1210.74
519.179	1241.55
519.386	1219.46
519.592	1215.78
519.798	1240
520.004	1331.25
520.21	1248.91
520.417	1334.35
520.623	1343.85
520.829	1371.36
521.035	1357.8
521.241	1347.33
521.447	1398.87
521.653	1486.44
521.859	1373.3
522.065	1383.57
522.271	1475.01
522.477	1402.16
522.683	1468.43
522.889	1404.88
523.095	1378.53
523.301	1398.1
523.507	1366.71
523.713	1412.05
523.919	1345.4
524.125	1463.97
524.331	1418.63
524.537	1515.31
524.742	1514.15
524.948	1499.81
525.154	1507.18
525.36	1577.12
525.566	1500.98
525.772	1570.53
525.977	1435.3
526.183	1532.17
526.389	1540.69
526.595	1438.98
526.8	1437.04
527.006	1413.4
527.212	1409.33
527.417	1368.26
527.623	1345.4
527.829	1423.86
528.034	1466.1
528.24	1480.83
528.446	1462.03
528.651	1542.24
528.857	1537.98
529.062	1590.87
529.268	1557.94
529.473	1553.68
529.679	1557.74
529.884	1636.99
530.09	1613.93
530.295	1620.32
530.501	1638.73
530.706	1606.76
530.912	1598.43
531.117	1633.89
531.323	1618
531.528	1636.99
531.733	1645.51
531.939	1651.32
532.144	1665.66
532.35	1616.06
532.555	1666.05
532.76	1652.87
532.966	1618.39
533.171	1633.11
533.376	1565.3
533.581	1578.09
533.787	1616.84
533.992	1658.69
534.197	1645.12
534.402	1624.78
534.607	1635.05
534.813	1719.52
535.018	1628.85
535.223	1661.4
535.428	1666.82
535.633	1731.92
535.838	1737.93
536.043	1740.45
536.249	1818.53
536.454	1740.64
536.659	1725.14
536.864	1730.95
537.069	1728.63
537.274	1738.7
537.479	1713.9
537.684	1749.94
537.889	1718.17
538.094	1793.34
538.299	1736.77
538.504	1765.83
538.708	1728.24
538.913	1812.91
539.118	1761.57
539.323	1777.07
539.528	1733.86
539.733	1740.64
539.938	1780.94
540.142	1762.73
540.347	1711.77
540.552	1712.35
540.757	1711.77
540.962	1718.94
541.166	1668.76
541.371	1716.62
541.576	1713.52
541.781	1631.37
541.985	1757.3
542.19	1721.65
542.395	1808.84
542.599	1871.23
542.804	1817.37
543.008	1829.76
543.213	1767.77
543.418	1725.72
543.622	1797.22
543.827	1753.82
544.031	1826.28
544.236	1865.8
544.44	1825.5
544.645	1883.05
544.849	1810.97
545.054	1864.64
545.258	1890.02
545.463	1883.05
545.667	1812.13
545.872	1856.7
546.076	1842.55
546.281	1857.08
546.485	1820.08
546.689	1816.59
546.894	1844.49
547.098	1859.21
547.302	1783.65
547.507	1864.25
547.711	1879.75
547.915	1891.18
548.119	1773.19
548.324	1808.84
548.528	1886.15
548.732	1863.09
548.936	1916.18
549.141	1932.64
549.345	1872.58
549.549	1915.79
549.753	1865.8
549.957	1937.1
550.161	1920.63
550.366	1889.05
550.57	1841.58
550.774	1861.15
550.978	1895.45
551.182	1904.94
551.386	1876.07
551.59	1877.43
551.794	1857.28
551.998	1918.5
552.202	1863.86
552.406	1861.35
552.61	1886.73
552.814	1914.63
553.018	1925.09
553.222	1833.64
553.426	1892.93
553.63	1930.51
553.833	1885.76
554.037	1831.31
554.241	1888.08
554.445	1902.81
554.649	1881.5
554.853	1866.19
555.056	1910.56
555.26	1927.61
555.464	1905.13
555.668	1892.35
555.871	1951.63
556.075	1957.06
556.279	1842.55
556.483	1858.63
556.686	1875.49
556.89	1862.12
557.094	1866.19
557.297	1816.98
557.501	1899.32
557.704	1820.08
557.908	1875.1
558.112	1816.59
558.315	1897.77
558.519	1833.64
558.722	1831.9
558.926	1829.38
559.129	1751.3
559.333	1780.75
559.536	1740.64
559.74	1763.12
559.943	1736.19
560.147	1763.12
560.35	1758.08
560.553	1759.63
560.757	1687.75
560.96	1800.7
561.164	1761.76
561.367	1870.26
561.57	1765.63
561.774	1808.45
561.977	1771.64
562.18	1778.23
562.384	1823.95
562.587	1775.32
562.79	1748.97
562.993	1769.7
563.197	1794.7
563.4	1822.98
563.603	1824.92
563.806	1858.83
564.009	1779
564.212	1752.85
564.416	1701.12
564.619	1764.28
564.822	1693.75
565.025	1762.53
565.228	1738.12
565.431	1747.62
565.634	1657.52
565.837	1708.48
566.04	1674.57
566.243	1668.76
566.446	1596.69
566.649	1670.7
566.852	1610.06
567.055	1657.52
567.258	1654.04
567.461	1719.72
567.664	1733.28
567.867	1617.42
568.07	1680
568.273	1663.72
568.475	1697.05
568.678	1622.07
568.881	1642.61
569.084	1584.87
569.287	1544.38
569.489	1542.83
569.692	1640.86
569.895	1653.45
570.098	1544.96
570.3	1553.29
570.503	1512.99
570.706	1526.74
570.909	1510.66
571.111	1494.19
571.314	1480.05
571.516	1513.96
571.719	1544.18
571.922	1516.28
572.124	1521.51
572.327	1535.08
572.529	1481.21
572.732	1521.9
572.935	1554.45
573.137	1582.35
573.34	1515.7
573.542	1559.49
573.745	1512.21
573.947	1510.28
574.15	1504.85
574.352	1485.86
574.554	1546.31
574.757	1491.09
574.959	1482.76
575.162	1501.56
575.364	1446.92
575.566	1534.3
575.769	1428.9
575.971	1483.15
576.173	1359.35
576.376	1464.94
576.578	1472.3
576.78	1524.23
576.982	1359.15
577.185	1421.73
577.387	1419.8
577.589	1430.26
577.791	1456.61
577.993	1460.48
578.196	1396.55
578.398	1439.17
578.6	1410.11
578.802	1391.12
579.004	1373.68
579.206	1399.84
579.408	1434.91
579.61	1378.53
579.812	1441.88
580.014	1410.88
580.216	1388.99
580.418	1384.73
580.62	1416.11
580.822	1374.07
581.024	1402.36
581.226	1430.84
581.428	1412.05
581.63	1499.81
581.832	1405.65
582.034	1480.44
582.236	1454.28
582.438	1458.93
582.64	1509.31
582.841	1500.39
583.043	1543.79
583.245	1484.51
583.447	1490.71
583.649	1455.64
583.85	1472.11
584.052	1517.25
584.254	1436.26
584.456	1488.38
584.657	1388.8
584.859	1451.38
585.061	1436.26
585.262	1413.01
585.464	1432.39
585.666	1450.8
585.867	1388.02
586.069	1441.3
586.27	1435.68
586.472	1410.69
586.674	1398.68
586.875	1373.1
587.077	1441.3
587.278	1434.52
587.48	1400.81
587.681	1494.97
587.883	1420.18
588.084	1345.2
588.285	1395.77
588.487	1340.55
588.688	1387.63
588.89	1280.69
589.091	1283.98
589.292	1261.7
589.494	1255.3
589.695	1253.75
589.896	1166.37
590.098	1191.76
590.299	1218.88
590.5	1223.72
590.702	1214.81
590.903	1247.55
591.104	1324.86
591.305	1295.6
591.507	1312.85
591.708	1323.12
591.909	1293.28
592.11	1361.48
592.311	1329.9
592.512	1301.8
592.714	1237.29
592.915	1302.58
593.116	1259.95
593.317	1267.12
593.518	1310.52
593.719	1303.55
593.92	1298.7
594.121	1339.58
594.322	1313.62
594.523	1310.91
594.724	1267.51
594.925	1291.92
595.126	1305.29
595.327	1304.71
595.528	1303.16
595.729	1284.75
595.929	1287.47
596.13	1322.73
596.331	1308.97
596.532	1295.99
596.733	1367.29
596.934	1336.87
597.135	1381.24
597.335	1331.25
597.536	1281.85
597.737	1320.98
597.938	1274.29
598.138	1333.19
598.339	1293.28
598.54	1315.17
598.74	1319.82
598.941	1310.72
599.142	1349.27
599.342	1333.77
599.543	1311.1
599.744	1329.12
599.944	1309.36
600.145	1302.39
600.345	1321.57
600.546	1364.97
600.746	1331.25
600.947	1355.47
601.147	1295.8
601.348	1361.67
601.548	1269.06
601.749	1334.55
601.949	1282.24
602.15	1296.38
602.35	1277.59
602.551	1297.93
602.751	1282.82
602.951	1299.09
603.152	1225.85
603.352	1314.4
603.552	1279.91
603.753	1324.86
603.953	1341.91
604.153	1302.77
604.354	1324.08
604.554	1302.58
604.754	1297.15
604.954	1269.25
605.155	1300.64
605.355	1323.89
605.555	1368.07
605.755	1372.72
605.955	1314.78
606.155	1340.75
606.356	1287.27
606.556	1355.28
606.756	1338.81
606.956	1275.07
607.156	1359.35
607.356	1288.24
607.556	1316.72
607.756	1280.49
607.956	1344.04
608.156	1279.72
608.356	1254.72
608.556	1324.47
608.756	1269.45
608.956	1238.64
609.156	1285.92
609.356	1260.73
609.556	1233.8
609.755	1270.22
609.955	1240.77
610.155	1288.82
610.355	1305.68
610.555	1251.82
610.755	1250.27
610.954	1193.31
611.154	1241.94
611.354	1287.85
611.554	1210.74
611.753	1258.4
611.953	1202.22
612.153	1284.75
612.352	1264.41
612.552	1224.69
612.752	1187.88
612.951	1237.09
613.151	1242.52
613.351	1228.57
613.55	1235.54
613.75	1266.54
613.949	1220.04
614.149	1237.48
614.348	1215.39
614.548	1177.61
614.747	1168.12
614.947	1188.27
615.146	1089.84
615.346	1190.79
615.545	1227.4
615.745	1188.85
615.944	1223.72
616.144	1213.84
616.343	1209.77
616.542	1167.15
616.742	1147.58
616.941	1195.05
617.14	1126.85
617.34	1175.87
617.539	1167.15
617.738	1157.46
617.938	1236.9
618.137	1163.27
618.336	1148.55
618.535	1197.76
618.734	1162.89
618.934	1206.87
619.133	1179.16
619.332	1188.46
619.531	1132.86
619.73	1179.36
619.929	1219.07
620.128	1198.34
620.328	1239.22
620.527	1151.65
620.726	1168.7
620.925	1163.66
621.124	1172.57
621.323	1177.61
621.522	1117.16
621.721	1119.49
621.92	1103.6
622.119	1177.22
622.318	1131.31
622.517	1175.29
622.715	1143.9
622.914	1085.39
623.113	1133.05
623.312	1104.57
623.511	1164.82
623.71	1127.24
623.909	1110.96
624.107	1168.51
624.306	1113.29
624.505	1073.38
624.704	1092.56
624.902	1089.65
625.101	1134.79
625.3	1078.03
625.499	1078.03
625.697	1089.65
625.896	1056.71
626.095	1128.79
626.293	1078.8
626.492	1060.59
626.69	1113.87
626.889	1069.11
627.088	1092.36
627.286	1044.12
627.485	1063.3
627.683	1061.94
627.882	1066.79
628.08	993.55
628.279	1002.27
628.477	1081.71
628.676	983.09
628.874	1025.33
629.073	1003.24
629.271	985.41
629.469	1044.12
629.668	1035.98
629.866	1027.65
630.065	1018.93
630.263	1068.73
630.461	1000.91
630.66	1044.7
630.858	1061.75
631.056	1074.34
631.254	1075.7
631.453	979.99
631.651	1042.38
631.849	1055.55
632.047	1023.58
632.245	1001.11
632.444	1050.51
632.642	1072.6
632.84	1057.68
633.038	1021.84
633.236	1033.27
633.434	1008.08
633.632	1010.99
633.83	1022.03
634.028	1072.79
634.227	1012.15
634.425	1105.15
634.623	1039.08
634.821	1088.1
635.019	1053.81
635.216	1043.54
635.414	1070.08
635.612	1060.2
635.81	1026.49
636.008	1108.83
636.206	1074.15
636.404	1056.52
636.602	994.13
636.8	1061.75
636.997	1094.49
637.195	1084.23
637.393	1050.13
637.591	1133.63
637.789	1057.88
637.986	1060.2
638.184	1048.58
638.382	1102.44
638.58	1072.99
638.777	1104.96
638.975	1064.85
639.173	1050.13
639.37	1075.12
639.568	1078.99
639.765	1082.09
639.963	1037.53
640.161	1074.54
640.358	1065.24
640.556	1020.29
640.753	996.85
640.951	1009.83
641.148	1057.88
641.346	1056.33
641.543	975.92
641.741	1047.8
641.938	979.21
642.136	1038.5
642.333	999.36
642.531	1083.64
642.728	1043.54
642.925	1044.31
643.123	1015.06
643.32	1040.05
643.517	1012.15
643.715	1027.26
643.912	1017.38
644.109	1040.63
644.306	1017.19
644.504	1006.53
644.701	1046.06
644.898	1078.22
645.095	979.41
645.293	1017.58
645.49	1037.73
645.687	1034.82
645.884	1048.38
646.081	942.79
646.278	1007.89
646.475	986.77
646.672	1003.63
646.87	986.38
647.067	988.13
647.264	1005.95
647.461	924.19
647.658	913.73
647.855	978.44
648.052	935.62
648.249	855.02
648.446	950.73
648.642	915.67
648.839	912.57
649.036	916.44
649.233	884.86
649.43	885.44
649.627	875.95
649.824	940.27
650.021	872.27
650.217	937.17
650.414	919.93
650.611	949.96
650.808	963.71
651.004	931.94
651.201	985.61
651.398	1004.98
651.595	972.24
651.791	926.32
651.988	974.18
652.185	919.15
652.381	958.48
652.578	874.01
652.775	928.26
652.971	924
653.168	932.13
653.364	975.15
653.561	898.03
653.757	919.15
653.954	944.15
654.15	890.48
654.347	994.71
654.543	921.09
654.74	879.82
654.936	870.13
655.133	902.68
655.329	911.4
655.525	890.48
655.722	902.3
655.918	860.64
656.115	871.1
656.311	810.46
656.507	790.12
656.704	767.26
656.9	793.41
657.096	767.84
657.292	803.29
657.489	828.09
657.685	847.08
657.881	815.3
658.077	843.01
658.273	848.24
658.47	917.02
658.666	877.3
658.862	932.13
659.058	882.53
659.254	937.95
659.45	901.13
659.646	886.02
659.842	882.92
660.038	945.12
660.234	865.29
660.43	905.98
660.626	954.8
660.822	928.45
661.018	922.64
661.214	900.94
661.41	856.96
661.606	961.39
661.802	924.77
661.998	886.41
662.194	869.94
662.39	906.56
662.586	933.88
662.781	908.5
662.977	950.35
663.173	953.06
663.369	901.33
663.564	919.73
663.76	927.68
663.956	905.98
664.152	955.19
664.347	863.55
664.543	901.91
664.739	901.13
664.934	870.33
665.13	848.63
665.326	931.17
665.521	897.84
665.717	873.23
665.912	852.12
666.108	816.66
666.304	868.39
666.499	889.7
666.695	831.19
666.89	868.97
667.086	920.51
667.281	871.1
667.477	929.03
667.672	888.73
667.867	882.73
668.063	881.76
668.258	868.78
668.454	895.71
668.649	972.43
668.844	865.49
669.04	935.23
669.235	845.72
669.43	859.29
669.626	860.84
669.821	871.1
670.016	859.29
670.211	879.24
670.407	840.69
670.602	845.34
670.797	852.89
670.992	903.85
671.187	823.25
671.382	913.15
671.578	842.43
671.773	870.72
671.968	793.99
672.163	860.64
672.358	882.73
672.553	831.39
672.748	835.65
672.943	922.25
673.138	814.72
673.333	918.77
673.528	831.58
673.723	873.43
673.918	850.18
674.113	778.69
674.308	879.24
674.503	837.97
674.698	891.06
674.892	881.95
675.087	895.52
675.282	852.12
675.477	823.44
675.672	860.84
675.867	823.64
676.061	796.51
676.256	800
676.451	810.65
676.646	840.1
676.84	818.99
677.035	770.16
677.23	803.29
677.424	853.67
677.619	847.27
677.814	870.33
678.008	854.25
678.203	822.28
678.397	800.77
678.592	816.85
678.787	883.31
678.981	835.07
679.176	824.22
679.37	836.81
679.565	805.42
679.759	794.38
679.954	842.62
680.148	855.02
680.342	873.23
680.537	856.38
680.731	814.34
680.926	849.99
681.12	830.03
681.314	819.76
681.509	824.6
681.703	807.36
681.897	816.47
682.092	780.82
682.286	807.36
682.48	866.65
682.674	860.06
682.869	844.17
683.063	797.29
683.257	862.39
683.451	824.22
683.645	827.32
683.839	774.42
684.034	778.88
684.228	852.12
684.422	750.21
684.616	761.25
684.81	816.27
685.004	793.6
685.198	793.22
685.392	809.88
685.586	807.17
685.78	803.1
685.974	810.07
686.168	803.87
686.362	865.29
686.556	717.66
686.75	685.69
686.944	697.31
687.138	702.54
687.331	600.63
687.525	592.5
687.719	526.43
687.913	584.16
688.107	609.16
688.301	585.91
688.494	620.39
688.688	581.06
688.882	565.95
689.076	567.5
689.269	584.36
689.463	671.35
689.657	619.43
689.85	578.16
690.044	639.96
690.238	640.74
690.431	630.28
690.625	624.85
690.818	669.41
691.012	699.44
691.205	691.89
691.399	665.34
691.593	653.91
691.786	753.11
691.98	742.65
692.173	763.96
692.366	757.96
692.56	731.02
692.753	789.92
692.947	705.84
693.14	784.89
693.333	755.44
693.527	698.09
693.72	744.39
693.914	763.38
694.107	738.19
694.3	782.37
694.493	749.04
694.687	806.59
694.88	733.54
695.073	826.54
695.266	811.24
695.46	787.79
695.653	855.02
695.846	834.49
696.039	754.47
696.232	812.4
696.425	859.87
696.618	832.16
696.812	829.64
697.005	900.17
697.198	968.56
697.391	904.82
697.584	893.58
697.777	967.98
697.97	956.55
698.163	947.63
698.356	962.36
698.549	1000.53
698.742	987.74
698.935	929.81
699.127	936.59
699.32	921.09
699.513	934.65
699.706	961.39
699.899	973.21
700.092	950.93
700.285	985.8
700.477	912.95
700.67	988.71
700.863	1018.16
701.056	1080.16
701.248	1041.21
701.441	1078.03
701.634	1028.04
701.826	1114.45
702.019	1032.11
702.212	1092.94
702.404	1029.4
702.597	1054.58
702.79	1080.93
702.982	1095.27
703.175	1110.58
703.367	1126.08
703.56	1150.49
703.752	1191.37
703.945	1182.26
704.137	1192.92
704.33	1221.79
704.522	1230.31
704.715	1231.28
704.907	1259.18
705.1	1251.04
705.292	1266.15
705.484	1263.83
705.677	1290.57
705.869	1294.44
706.061	1345.01
706.254	1371.17
706.446	1324.28
706.638	1359.93
706.831	1401.58
707.023	1391.12
707.215	1448.47
707.407	1432
707.599	1432.78
707.792	1488.19
707.984	1446.73
708.176	1507.37
708.368	1489.35
708.56	1473.08
708.752	1504.27
708.944	1476.37
709.136	1533.53
709.329	1496.71
709.521	1608.51
709.713	1575.18
709.905	1584.48
710.097	1638.34
710.289	1606.76
710.481	1593.78
710.672	1639.51
710.864	1655.59
711.056	1694.72
711.248	1693.95
711.44	1706.74
711.632	1720.69
711.824	1744.71
712.016	1755.17
712.207	1783.27
712.399	1740.06
712.591	1825.12
712.783	1791.4
712.975	1848.75
713.166	1778.03
713.358	1812.33
713.55	1861.35
713.741	1884.4
713.933	1859.8
714.125	1864.83
714.316	1868.51
714.508	1951.63
714.7	1945.24
714.891	1900.29
715.083	1976.24
715.274	1927.22
715.466	1944.27
715.657	2007.24
715.849	1919.28
716.04	1927.8
716.232	1898.74
716.423	1931.87
716.615	1870.45
716.806	1867.93
716.998	1773.97
717.189	1740.83
717.381	1687.75
717.572	1654.23
717.763	1693.17
717.955	1665.66
718.146	1634.66
718.337	1591.46
718.528	1561.62
718.72	1492.64
718.911	1566.46
719.102	1531.01
719.293	1555.23
719.485	1523.06
719.676	1531.59
719.867	1522.87
720.058	1507.95
720.249	1555.61
720.44	1550.77
720.632	1581.19
720.823	1653.45
721.014	1749.36
721.205	1773
721.396	1852.43
721.587	1937.49
721.778	1981.66
721.969	1999.49
722.16	2063.04
722.351	2117.09
722.542	2206.99
722.733	2197.3
722.924	2131.04
723.115	2222.88
723.305	2180.45
723.496	2185.29
723.687	2063.42
723.878	2073.69
724.069	2101.98
724.26	2088.61
724.45	2011.5
724.641	2050.25
724.832	2099.85
725.023	2039.59
725.213	2032.62
725.404	2019.64
725.595	2070.21
725.785	2038.82
725.976	2065.94
726.167	2118.64
726.357	2101.01
726.548	2198.08
726.739	2141.5
726.929	2212.03
727.12	2186.26
727.31	2227.72
727.501	2199.24
727.691	2191.3
727.882	2199.63
728.072	2272.48
728.263	2278.1
728.453	2342.42
728.644	2339.13
728.834	2330.6
729.024	2267.63
729.215	2279.84
729.405	2292.63
729.596	2393.57
729.786	2427.28
729.976	2417.98
730.167	2463.12
730.357	2397.06
730.547	2411.59
730.737	2478.04
730.928	2505.56
731.118	2506.52
731.308	2506.14
731.498	2482.11
731.688	2612.5
731.879	2625.29
732.069	2692.13
732.259	2690
732.449	2709.38
732.639	2787.85
732.829	2831.44
733.019	2859.53
733.209	2923.66
733.399	2920.95
733.589	3031.39
733.779	3074.01
733.969	3051.73
734.159	3092.03
734.349	3169.14
734.539	3224.75
734.729	3226.1
734.919	3233.08
735.109	3275.89
735.299	3196.85
735.488	3261.36
735.678	3263.69
735.868	3251.68
736.058	3262.91
736.248	3249.54
736.437	3232.11
736.627	3191.81
736.817	3353.78
737.007	3312.32
737.196	3393.11
737.386	3300.11
737.576	3346.42
737.765	3373.35
737.955	3337.89
738.144	3459.37
738.334	3449.3
738.524	3414.04
738.713	3421.4
738.903	3435.93
739.092	3498.32
739.282	3485.53
739.471	3498.9
739.661	3494.05
739.85	3510.13
740.04	3533.77
740.229	3534.74
740.419	3583.76
740.608	3577.56
740.797	3596.55
740.987	3621.15
741.176	3666.1
741.365	3577.95
741.555	3572.52
741.744	3684.31
741.933	3603.33
742.123	3682.18
742.312	3704.66
742.501	3781.57
742.69	3721.71
742.88	3629.29
743.069	3787.19
743.258	3717.06
743.447	3806.57
743.636	3770.92
743.825	3741.66
744.014	3779.83
744.204	3815.29
744.393	3731.2
744.582	3854.42
744.771	3837.76
744.96	3786.42
745.149	3853.07
745.338	3774.79
745.527	3854.81
745.716	3831.76
745.905	3820.32
746.094	3898.02
746.283	3853.26
746.471	3861.98
746.66	3940.06
746.849	3857.14
747.038	3906.93
747.227	3860.82
747.416	3885.42
747.604	3873.6
747.793	3907.9
747.982	3887.55
748.171	3908.29
748.359	3922.04
748.548	3917.59
748.737	3909.64
748.926	3842.8
749.114	3778.67
749.303	3861.2
749.491	3839.89
749.68	3806.57
749.869	3886.97
750.057	3853.45
750.246	3794.56
750.434	3865.47
750.623	3846.48
750.811	3831.76
751	3922.24
751.188	3829.24
751.377	3844.54
751.565	3858.69
751.754	3817.22
751.942	3825.17
752.131	3853.45
752.319	3822.07
752.507	3757.36
752.696	3836.79
752.884	3850.74
753.072	3828.66
753.261	3846.48
753.449	3824.97
753.637	3753.48
753.825	3870.31
754.014	3775.57
754.202	3787.39
754.39	3870.31
754.578	3828.66
754.766	3772.27
754.955	3780.41
755.143	3827.88
755.331	3806.96
755.519	3793.97
755.707	3765.3
755.895	3774.21
756.083	3800.56
756.271	3709.31
756.459	3748.06
756.647	3784.29
756.835	3795.52
757.023	3681.6
757.211	3752.51
757.399	3705.63
757.587	3713.96
757.775	3669.2
757.963	3634.13
758.151	3693.42
758.339	3636.85
758.526	3649.44
758.714	3654.48
758.902	3501.42
759.09	3370.83
759.278	3164.3
759.465	2956.41
759.653	2536.94
759.841	2296.11
760.028	1979.53
760.216	1686
760.404	1592.81
760.591	1314.98
760.779	1115.23
760.967	987.93
761.154	817.82
761.342	853.67
761.529	829.25
761.717	890.28
761.905	888.93
762.092	957.71
762.28	892.42
762.467	884.47
762.655	812.01
762.842	842.62
763.029	851.15
763.217	855.22
763.404	867.62
763.592	869.36
763.779	849.4
763.966	869.75
764.154	959.45
764.341	996.26
764.528	1020.68
764.716	1064.46
764.903	1118.71
765.09	1184.59
765.277	1276.81
765.465	1429.48
765.652	1473.85
765.839	1553.48
766.026	1709.25
766.213	1781.91
766.4	1888.08
766.588	2068.66
766.775	2149.84
766.962	2247.29
767.149	2285.07
767.336	2465.84
767.523	2433.29
767.71	2574.53
767.897	2660.55
768.084	2757.62
768.271	2822.72
768.458	2894.99
768.645	2951.76
768.832	2932.57
769.019	3008.14
769.206	3046.11
769.392	3100.75
769.579	3179.02
769.766	3133.88
769.953	3153.83
770.14	3215.83
770.327	3189.1
770.513	3237.73
770.7	3293.91
770.887	3246.25
771.073	3299.14
771.26	3280.35
771.447	3217.19
771.634	3239.08
771.82	3350.68
772.007	3224.55
772.193	3318.52
772.38	3364.44
772.567	3312.71
772.753	3268.53
772.94	3344.29
773.126	3302.24
773.313	3316.39
773.499	3272.02
773.686	3349.52
773.872	3302.83
774.059	3361.92
774.245	3227.46
774.432	3308.25
774.618	3173.79
774.804	3237.34
774.991	3166.04
775.177	3262.53
775.363	3257.68
775.55	3287.91
775.736	3207.31
775.922	3244.7
776.109	3224.75
776.295	3234.43
776.481	3236.18
776.667	3299.73
776.853	3192.97
777.04	3179.41
777.226	3204.98
777.412	3227.26
777.598	3160.23
777.784	3170.88
777.97	3165.07
778.156	3213.12
778.342	3136.78
778.528	3138.33
778.715	3090.09
778.901	3131.17
779.087	3171.27
779.272	3097.26
779.458	3086.99
779.644	3106.75
779.83	3076.92
780.016	3162.16
780.202	3065.48
780.388	3132.13
780.574	3010.07
780.76	3048.24
780.946	3116.25
781.131	3098.23
781.317	3023.83
781.503	3003.68
781.689	3051.34
781.874	3146.47
782.06	3026.93
782.246	3076.92
782.432	3009.3
782.617	2998.45
782.803	3030.8
782.989	2946.72
783.174	2984.5
783.36	2914.56
783.545	2958.15
783.731	2980.43
783.916	2864.96
784.102	2969
784.288	2921.14
784.473	2934.32
784.659	2925.79
784.844	2958.34
785.029	2886.85
785.215	2914.56
785.4	2851.59
785.586	2931.61
785.771	2858.56
785.956	2902.16
786.142	2868.64
786.327	2879.87
786.512	2860.11
786.698	2859.53
786.883	2792.3
787.068	2778.93
787.254	2856.24
787.439	2781.84
787.624	2793.27
787.809	2743.67
787.994	2770.6
788.18	2856.63
788.365	2727.2
788.55	2740.38
788.735	2752.58
788.92	2724.88
789.105	2722.36
789.29	2736.11
789.475	2672.76
789.66	2687.87
789.845	2622
790.03	2638.66
790.215	2703.76
790.4	2726.04
790.585	2680.9
790.77	2660.75
790.955	2577.24
791.14	2620.06
791.325	2643.31
791.51	2548.57
791.695	2648.93
791.879	2629.75
792.064	2568.33
792.249	2658.42
792.434	2667.72
792.618	2617.54
792.803	2677.02
792.988	2641.18
793.173	2601.85
793.357	2674.7
793.542	2583.25
793.727	2640.79
793.911	2628.58
794.096	2634.98
794.281	2674.5
794.465	2716.16
794.65	2648.15
794.834	2705.5
795.019	2712.86
795.203	2712.48
795.388	2700.08
795.572	2742.31
795.757	2687.87
795.941	2684.19
796.126	2679.93
796.31	2626.65
796.494	2646.22
796.679	2648.93
796.863	2600.1
797.048	2711.51
797.232	2669.66
797.416	2700.85
797.601	2669.27
797.785	2735.15
797.969	2730.69
798.153	2658.42
798.338	2693.88
798.522	2726.81
798.706	2740.76
798.89	2754.33
799.074	2828.14
799.258	2792.3
799.443	2736.5
799.627	2691.17
799.811	2737.08
799.995	2686.9
800.179	2637.3
800.363	2687.68
800.547	2704.73
800.731	2736.11
800.915	2658.03
801.099	2633.23
801.283	2672.37
801.467	2629.55
801.651	2606.69
801.835	2742.31
802.019	2707.83
802.202	2667.92
802.386	2657.65
802.57	2606.69
802.754	2609.99
802.938	2628.39
803.121	2612.7
803.305	2675.28
803.489	2634.59
803.673	2687.87
803.856	2693.3
804.04	2661.72
804.224	2653.58
804.407	2664.62
804.591	2633.04
804.775	2658.62
804.958	2655.71
805.142	2771.57
805.326	2678.18
805.509	2654.16
805.693	2724.3
805.876	2742.51
806.06	2715.96
806.243	2729.14
806.427	2718.48
806.61	2739.99
806.794	2694.07
806.977	2724.68
807.16	2719.26
807.344	2713.45
807.527	2667.53
807.71	2676.44
807.894	2702.21
808.077	2718.29
808.26	2648.35
808.444	2635.75
808.627	2656.29
808.81	2646.99
808.993	2573.75
809.177	2587.12
809.36	2596.42
809.543	2597.39
809.726	2495.87
809.909	2541.98
810.092	2516.99
810.276	2513.11
810.459	2513.31
810.642	2475.33
810.825	2469.71
811.008	2488.89
811.191	2389.11
811.374	2382.33
811.557	2411.98
811.74	2465.06
811.923	2367.22
812.106	2354.43
812.289	2287.2
812.472	2309.68
812.654	2290.11
812.837	2275.19
813.02	2231.21
813.203	2220.94
813.386	2119.42
813.569	2093.26
813.751	2014.79
813.934	2086.87
814.117	2034.17
814.3	2029.13
814.482	1901.45
814.665	1883.82
814.848	1871.23
815.03	1804.19
815.213	1803.61
815.396	1800.51
815.578	1761.37
815.761	1734.44
815.943	1796.44
816.126	1664.89
816.309	1653.45
816.491	1569.95
816.674	1546.51
816.856	1611.61
817.039	1563.36
817.221	1674.96
817.403	1603.08
817.586	1680.19
817.768	1659.65
817.951	1557.74
818.133	1555.23
818.315	1598.43
818.498	1628.85
818.68	1683.29
818.862	1641.25
819.045	1686.78
819.227	1647.64
819.409	1630.4
819.591	1661.79
819.774	1614.51
819.956	1644.74
820.138	1729.4
820.32	1699.95
820.502	1757.5
820.684	1833.83
820.866	1832.86
821.048	1898.74
821.231	1874.91
821.413	1882.85
821.595	1891.57
821.777	1889.63
821.959	1880.53
822.141	1898.93
822.323	1773.97
822.505	1741.22
822.686	1642.02
822.868	1633.5
823.05	1487.03
823.232	1441.88
823.414	1376.78
823.596	1471.91
823.778	1465.71
823.96	1518.61
824.141	1489.74
824.323	1545.54
824.505	1631.76
824.687	1643.57
824.868	1707.7
825.05	1783.07
825.232	1821.63
825.413	1887.5
825.595	1835.38
825.777	1775.13
825.958	1821.24
826.14	1799.15
826.321	1835.38
826.503	1839.65
826.685	1835.96
826.866	1847.78
827.048	1830.93
827.229	1786.56
827.411	1763.31
827.592	1703.05
827.773	1705.19
827.955	1673.99
828.136	1645.71
828.318	1673.99
828.499	1666.63
828.68	1583.71
828.862	1639.31
829.043	1685.42
829.224	1611.8
829.406	1591.46
829.587	1625.94
829.768	1626.33
829.949	1641.83
830.131	1635.44
830.312	1731.54
830.493	1625.75
830.674	1665.85
830.855	1663.53
831.036	1642.8
831.218	1698.6
831.399	1741.8
831.58	1653.45
831.761	1668.95
831.942	1665.27
832.123	1632.53
832.304	1632.72
832.485	1637.96
832.666	1622.84
832.847	1650.16
833.028	1657.14
833.209	1649.77
833.389	1630.79
833.57	1590.87
833.751	1612.96
833.932	1654.62
834.113	1624.2
834.294	1616.06
834.475	1678.06
834.655	1710.22
834.836	1695.11
835.017	1691.82
835.198	1638.15
835.378	1669.73
835.559	1754.4
835.74	1686.59
835.92	1719.91
836.101	1651.52
836.281	1735.02
836.462	1686.97
836.643	1758.47
836.823	1736.38
837.004	1749.36
837.184	1775.32
837.365	1780.17
837.545	1742.58
837.726	1715.45
837.906	1769.12
838.087	1737.15
838.267	1696.85
838.448	1703.64
838.628	1726.3
838.808	1726.3
838.989	1798.57
839.169	1670.5
839.349	1726.11
839.53	1783.07
839.71	1761.95
839.89	1733.09
840.07	1769.51
840.251	1730.18
840.431	1770.87
840.611	1710.03
840.791	1708.67
840.971	1754.98
841.151	1760.98
841.332	1713.13
841.512	1736.57
841.692	1652.87
841.872	1726.5
842.052	1692.98
842.232	1763.12
842.412	1655.78
842.592	1679.42
842.772	1735.99
842.952	1765.44
843.132	1701.12
843.312	1686.97
843.492	1695.3
843.672	1693.75
843.851	1670.12
844.031	1669.34
844.211	1693.75
844.391	1675.74
844.571	1693.95
844.751	1679.22
844.93	1665.47
845.11	1653.65
845.29	1680.39
845.47	1690.46
845.649	1697.24
845.829	1703.64
846.009	1689.69
846.188	1661.4
846.368	1685.04
846.547	1670.12
846.727	1687.94
846.907	1655.39
847.086	1691.82
847.266	1686.59
847.445	1644.54
847.625	1624.39
847.804	1596.69
847.984	1647.26
848.163	1638.34
848.343	1619.94
848.522	1625.75
848.701	1633.89
848.881	1590.49
849.06	1647.26
849.239	1651.13
849.419	1596.69
849.598	1577.7
849.777	1532.94
849.957	1542.63
850.136	1478.89
850.315	1500.39
850.494	1497.88
850.674	1498.65
850.853	1536.63
851.032	1504.27
851.211	1534.69
851.39	1505.43
851.569	1470.17
851.748	1457.38
851.927	1516.28
852.107	1524.81
852.286	1475.6
852.465	1473.08
852.644	1540.5
852.823	1500.78
853.002	1487.03
853.181	1516.48
853.359	1514.34
853.538	1435.1
853.717	1496.91
853.896	1395.19
854.075	1343.46
854.254	1334.93
854.433	1280.88
854.611	1297.74
854.79	1256.47
854.969	1329.32
855.148	1322.92
855.327	1284.37
855.505	1355.86
855.684	1357.6
855.863	1356.25
856.041	1344.62
856.22	1375.62
856.399	1388.22
856.577	1449.83
856.756	1450.8
856.934	1539.53
857.113	1548.44
857.291	1462.03
857.47	1428.32
857.648	1454.86
857.827	1458.74
858.005	1498.26
858.184	1434.13
858.362	1499.62
858.541	1465.52
858.719	1431.23
858.898	1431.81
859.076	1395.38
859.254	1517.06
859.433	1424.25
859.611	1418.05
859.789	1385.89
859.967	1451.57
860.146	1466.1
860.324	1403.71
860.502	1412.24
860.68	1372.13
860.859	1362.64
861.037	1368.84
861.215	1429.1
861.393	1432.58
861.571	1421.54
861.749	1395.58
861.927	1399.84
862.105	1390.54
862.283	1374.65
862.461	1378.14
862.639	1327.38
862.817	1362.45
862.995	1368.26
863.173	1353.34
863.351	1378.53
863.529	1352.18
863.707	1416.11
863.885	1395.96
864.063	1306.65
864.241	1345.78
864.418	1375.04
864.596	1321.95
864.774	1319.82
864.952	1332.61
865.129	1317.5
865.307	1326.22
865.485	1245.42
865.663	1351.79
865.84	1233.22
866.018	1271
866.196	1119.1
866.373	1175.67
866.551	1133.05
866.728	1097.98
866.906	1156.88
867.084	1173.74
867.261	1188.27
867.439	1199.12
867.616	1233.41
867.794	1191.95
867.971	1219.65
868.149	1199.12
868.326	1271
868.503	1240.58
868.681	1255.5
868.858	1249.88
869.035	1197.18
869.213	1258.79
869.39	1183.04
869.567	1300.64
869.745	1210.55
869.922	1217.52
870.099	1252.59
870.276	1225.08
870.454	1254.34
870.631	1266.54
870.808	1242.9
870.985	1223.34
871.162	1300.06
871.339	1231.47
871.517	1190.79
871.694	1174.71
871.871	1219.46
872.048	1214.23
872.225	1214.04
872.402	1215.97
872.579	1180.52
872.756	1211.13
872.933	1154.36
873.11	1158.82
873.287	1192.14
873.463	1204.35
873.64	1153.78
873.817	1191.17
873.994	1140.8
874.171	1135.18
874.348	1171.8
874.524	1126.08
874.701	1151.65
874.878	1106.31
875.055	1181.29
875.231	1142.16
875.408	1177.22
875.585	1108.83
875.762	1150.87
875.938	1147.19
876.115	1118.52
876.291	1117.55
876.468	1116
876.645	1117.36
876.821	1124.53
876.998	1128.79
877.174	1124.91
877.351	1080.35
877.527	1132.66
877.704	1123.17
877.88	1095.46
878.057	1100.89
878.233	1135.37
878.409	1064.85
878.586	1061.94
878.762	1091.59
878.938	1074.34
879.115	1007.31
879.291	1113.29
879.467	1032.69
879.644	1070.08
879.82	1079.77
879.996	1027.65
880.172	1006.34
880.349	1048.77
880.525	1079.96
880.701	1035.79
880.877	1005.18
881.053	1039.47
881.229	1043.93
881.405	1091.2
881.581	987.16
881.757	1021.84
881.933	1029.98
882.109	1056.13
882.285	1032.3
882.461	1021.65
882.637	1026.88
882.813	965.46
882.989	1037.73
883.165	1089.26
883.341	1026.68
883.517	1076.86
883.693	1077.06
883.869	1051.68
884.044	997.23
884.22	1034.63
884.396	1075.31
884.572	1047.41
884.747	1058.84
884.923	1056.91
885.099	1057.49
885.275	1079.96
885.45	1027.65
885.626	1026.49
885.801	1014.48
885.977	1010.99
886.153	968.36
886.328	1033.66
886.504	1015.45
886.679	1023.97
886.855	1008.08
887.03	1059.43
887.206	1057.1
887.381	1045.86
887.557	1025.52
887.732	1078.99
887.908	1032.11
888.083	1089.46
888.258	1025.33
888.434	1020.87
888.609	1016.61
888.784	1074.34
888.96	1015.64
889.135	970.88
889.31	998.78
889.485	1043.93
889.661	1019.9
889.836	1062.91
890.011	1049.35
890.186	991.03
890.361	998.01
890.537	1034.05
890.712	1072.6
890.887	1044.51
891.062	1018.55
891.237	1053.42
891.412	994.13
891.587	1024.36
891.762	1062.33
891.937	1050.9
892.112	992.58
892.287	1001.69
892.462	939.3
892.637	954.61
892.812	939.5
892.987	935.04
893.161	933.1
893.336	925.35
893.511	932.91
893.686	917.8
893.861	917.6
894.035	896.1
894.21	917.8
894.385	881.76
894.56	896.87
894.734	814.53
894.909	847.08
895.084	842.24
895.258	819.95
895.433	822.67
895.608	813.75
895.782	781.4
895.957	832.74
896.131	785.27
896.306	704.09
896.48	728.89
896.655	722.11
896.829	632.79
897.004	675.61
897.178	681.81
897.353	649.65
897.527	729.09
897.701	691.31
897.876	642.09
898.05	723.86
898.224	704.29
898.399	736.64
898.573	656.24
898.747	581.84
898.921	623.11
899.096	496.78
899.27	527.4
899.444	536.5
899.618	595.79
899.792	577.77
899.967	596.56
900.141	660.11
900.315	583.2
900.489	581.65
900.663	580.87
900.837	607.41
901.011	569.63
901.185	658.18
901.359	622.33
901.533	589.98
901.707	616.33
901.881	588.43
902.055	564.79
902.229	565.76
902.403	621.75
902.576	585.52
902.75	596.37
902.924	663.99
903.098	654.3
903.272	699.64
903.446	701.96
903.619	688.98
903.793	759.12
903.967	725.79
904.14	766.48
904.314	753.11
904.488	750.4
904.661	749.24
904.835	745.17
905.009	779.07
905.182	833.32
905.356	756.21
905.529	751.76
905.703	724.44
905.876	741.68
906.05	677.94
906.223	686.27
906.397	655.08
906.57	637.06
906.744	583.97
906.917	605.48
907.09	588.81
907.264	564.6
907.437	560.14
907.61	510.15
907.784	546.19
907.957	583.97
908.13	510.15
908.304	575.25
908.477	522.55
908.65	539.99
908.823	492.91
908.996	550.26
909.17	507.83
909.343	533.01
909.516	508.8
909.689	535.73
909.862	519.06
910.035	526.81
910.208	469.85
910.381	487.68
910.554	587.85
910.727	515
910.9	488.45
911.073	483.61
911.246	583.2
911.419	584.36
911.592	539.6
911.765	514.42
911.938	519.65
912.11	516.55
912.283	520.23
912.456	545.61
912.629	514.03
912.802	503.95
912.974	446.02
913.147	403.98
913.32	374.34
913.493	428.59
913.665	454.16
913.838	438.85
914.01	468.5
914.183	465.4
914.356	463.65
914.528	505.89
914.701	505.31
914.873	497.17
915.046	438.66
915.218	412.89
915.391	372.98
915.563	367.55
915.736	421.61
915.908	449.32
916.081	444.08
916.253	454.93
916.425	467.53
916.598	490.58
916.77	441.76
916.942	396.42
917.115	346.24
917.287	418.51
917.459	382.28
917.632	372.98
917.804	347.21
917.976	413.09
918.148	432.46
918.32	429.55
918.493	482.06
918.665	492.72
918.837	429.94
919.009	480.7
919.181	502.4
919.353	483.03
919.525	455.9
919.697	444.86
919.869	477.99
920.041	532.05
920.213	564.21
920.385	519.26
920.557	482.06
920.729	504.73
920.901	495.43
921.073	508.8
921.244	463.27
921.416	492.52
921.588	474.31
921.76	467.92
921.932	534.56
922.103	466.75
922.275	469.66
922.447	478.77
922.619	370.07
922.79	461.33
922.962	440.21
923.134	465.01
923.305	444.86
923.477	397.39
923.648	426.65
923.82	433.82
923.991	368.52
924.163	355.93
924.335	396.04
924.506	367.55
924.677	445.05
924.849	399.52
925.02	413.47
925.192	426.84
925.363	384.8
925.535	428.59
925.706	398.55
925.877	453.58
926.049	383.83
926.22	399.52
926.391	403.98
926.562	436.53
926.734	412.89
926.905	430.91
927.076	336.94
927.247	397.78
927.419	325.9
927.59	351.67
927.761	326.48
927.932	324.93
928.103	321.83
928.274	277.66
928.445	278.24
928.616	285.99
928.787	249.76
928.958	282.11
929.129	283.27
929.3	286.76
929.471	246.46
929.642	217.98
929.813	179.62
929.984	263.71
930.155	164.31
930.326	222.05
930.496	176.13
930.667	142.81
930.838	164.31
931.009	128.66
931.18	172.84
931.35	173.61
931.521	176.33
931.692	119.17
931.863	73.64
932.033	112
932.204	123.82
932.374	114.91
932.545	65.12
932.716	130.6
932.886	127.89
933.057	63.76
933.227	67.83
933.398	164.12
933.568	59.5
933.739	29.66
933.909	48.65
934.08	104.83
934.25	1.18
934.421	22.3
934.591	80.61
934.761	38.18
934.932	18.03
935.102	65.12
935.272	44.19
935.443	30.82
935.613	20.17
935.783	55.04
935.953	34.89
936.123	145.13
936.294	21.72
936.464	42.45
936.634	54.85
936.804	18.03
936.974	1.95
937.144	60.27
937.314	60.47
937.484	48.65
937.655	14.74
937.825	96.89
937.995	9.12
938.165	93.01
938.334	63.76
938.504	70.73
938.674	55.04
938.844	51.55
939.014	110.26
939.184	78.68
939.354	136.8
939.524	136.41
939.694	88.56
939.863	95.15
940.033	152.3
940.203	148.23
940.373	98.44
940.542	136.22
940.712	80.81
940.882	107.35
941.051	123.43
941.221	119.95
941.391	157.15
941.56	99.99
941.73	69.38
941.899	195.31
942.069	52.52
942.238	113.55
942.408	68.22
942.577	130.41
942.747	83.71
942.916	51.55
943.086	60.85
943.255	131.57
943.425	109.1
943.594	42.83
943.763	31.02
943.933	38.77
944.102	23.07
944.271	47.87
944.441	74.03
944.61	66.28
944.779	82.16
944.948	158.11
945.117	26.56
945.287	57.17
945.456	7.18
945.625	52.91
945.794	97.08
945.963	41.87
946.132	72.48
946.301	59.69
946.47	87.2
946.639	33.73
946.808	47.87
946.977	100.18
947.146	132.35
947.315	42.06
947.484	88.17
947.653	78.87
947.822	60.85
947.991	57.95
948.16	163.15
948.329	93.98
948.498	62.21
948.666	60.47
948.835	97.86
949.004	45.55
949.173	25.01
949.341	57.37
949.51	70.93
949.679	114.52
949.847	86.23
950.016	149.01
950.185	117.43
950.353	44.97
950.522	80.42
950.69	98.63
950.859	75.77
951.028	127.89
951.196	74.8
951.365	72.09
951.533	79.26
951.701	86.43
951.87	90.5
952.038	62.98
952.207	75.58
952.375	140.29
952.543	43.42
952.712	101.54
952.88	57.95
953.048	140.1
953.217	95.53
953.385	41.87
953.553	103.28
953.721	50.97
953.89	58.33
954.058	30.05
954.226	37.99
954.394	79.65
954.562	13
954.73	64.92
954.898	46.71
955.067	104.83
955.235	69.18
955.403	102.31
955.571	118.78
955.739	92.24
955.907	28.3
956.075	61.05
956.243	54.07
956.41	96.89
956.578	7.57
956.746	36.63
956.914	54.07
957.082	95.15
957.25	94.95
957.418	59.3
957.585	76.16
957.753	137.19
957.921	48.26
958.089	88.36
958.256	105.03
958.424	97.08
958.592	72.87
958.759	60.08
958.927	71.7
959.095	73.45
959.262	65.89
959.43	93.21
959.597	43.42
959.765	84.49
959.932	44.77
960.1	101.54
960.267	84.1
960.435	81.78
960.602	97.47
960.77	70.93
960.937	20.36
961.104	76.93
961.272	24.43
961.439	54.27
961.606	91.66
961.774	90.88
961.941	76.74
962.108	91.85
962.275	84.49
962.443	108.51
962.61	93.21
962.777	128.08
962.944	127.5
963.111	111.42
963.278	104.83
963.446	98.44
963.613	100.76
963.78	89.53
963.947	106.19
964.114	97.08
964.281	160.25
964.448	88.36
964.615	58.72
964.782	105.03
964.949	146.88
965.116	126.15
965.282	131.38
965.449	111.81
965.616	40.7
965.783	112.97
965.95	93.6
966.117	30.63
966.283	72.67
966.45	126.53
966.617	102.31
966.784	145.33
966.95	129.44
967.117	132.54
967.284	61.43
967.45	76.93
967.617	155.4
967.784	101.35
967.95	145.13
968.117	98.44
968.283	143.78
968.45	186.59
968.616	120.53
968.783	141.06
968.949	129.44
969.116	130.02
969.282	135.45
969.449	122.27
969.615	113.55
969.781	104.25
969.948	84.1
970.114	72.09
970.28	159.66
970.447	114.91
970.613	139.32
970.779	131.38
970.945	122.66
971.112	125.37
971.278	104.25
971.444	125.56
971.61	157.34
971.776	93.79
971.942	140.1
972.108	149.2
972.275	108.13
972.441	142.23
972.607	192.79
972.773	104.06
972.939	140.87
973.105	106.38
973.271	94.76
973.437	86.62
973.602	87.78
973.768	113.55
973.934	117.81
974.1	137.38
974.266	37.02
974.432	106.19
974.598	90.69
974.763	143
974.929	83.33
975.095	171.48
975.261	90.88
975.426	74.03
975.592	106
975.758	165.09
975.923	64.34
976.089	60.66
976.255	150.95
976.42	100.18
976.586	136.61
976.751	104.64
976.917	196.48
977.082	155.79
977.248	36.05
977.413	33.92
977.579	76.93
977.744	89.91
977.91	54.46
978.075	77.13
978.24	111.03
978.406	128.08
978.571	84.88
978.736	59.88
978.902	127.7
979.067	86.81
979.232	20.55
979.397	95.15
979.563	131.76
979.728	75.19
979.893	100.96
980.058	87.01
980.223	111.61
980.388	117.23
980.554	89.72
980.719	67.63
980.884	110.45
981.049	107.93
981.214	74.22
981.379	119.36
981.544	85.65
981.709	81.2
981.874	63.37
982.039	74.03
982.204	129.44
982.368	117.81
982.533	62.02
982.698	109.68
982.863	143.2
983.028	66.67
983.193	115.1
983.357	105.8
983.522	94.56
983.687	93.21
983.852	91.46
984.016	74.8
984.181	106.96
984.346	114.13
984.51	138.55
984.675	109.29
984.839	114.33
985.004	108.51
985.168	111.42
985.333	126.34
985.498	85.07
985.662	118.98
985.827	118.4
985.991	109.1
986.155	80.61
986.32	125.18
986.484	128.47
986.649	115.88
986.813	62.02
986.977	90.5
987.142	98.05
987.306	45.16
987.47	68.99
987.634	93.01
987.799	89.72
987.963	125.37
988.127	138.16
988.291	157.34
988.455	97.86
988.62	71.9
988.784	105.22
988.948	113.16
989.112	55.62
989.276	99.41
989.44	107.93
989.604	61.63
989.768	87.98
989.932	158.31
990.096	68.22
990.26	65.89
990.424	68.22
990.588	66.28
990.752	136.41
990.915	120.33
991.079	92.82
991.243	77.9
991.407	124.01
991.571	95.53
991.734	118.01
991.898	130.41
992.062	160.44
992.226	67.44
992.389	72.67
992.553	51.75
992.717	66.28
992.88	71.7
993.044	73.06
993.207	78.87
993.371	111.81
993.535	106.96
993.698	105.41
993.862	116.26
994.025	109.1
994.189	78.29
994.352	105.8
994.515	80.42
994.679	127.31
994.842	66.67
995.006	111.03
995.169	83.71
995.332	55.23
995.496	109.1
995.659	35.47
995.822	73.83
995.985	66.67
996.149	125.37
996.312	68.22
996.475	135.83
996.638	40.7
996.801	103.28
996.964	131.18
997.128	68.02
997.291	70.35
997.454	90.5
997.617	48.26
997.78	129.44
997.943	53.49
998.106	110.06
998.269	71.12
998.432	58.92
998.595	67.05
998.758	38.18
998.92	61.43
999.083	17.45
999.246	45.55
999.409	48.07
999.572	21.91
999.735	44.19
999.897	84.3
1000.06	72.28
1000.223	58.33
1000.386	75.38
1000.548	87.59
1000.711	83.13
1000.874	84.49
1001.036	29.08
1001.199	80.61
1001.361	25.01
1001.524	64.53
1001.687	78.1
1001.849	31.6
1002.012	90.3
1002.174	91.46
1002.337	103.48
1002.499	54.46
1002.661	91.85
1002.824	42.25
1002.986	21.52
1003.149	59.88
1003.311	15.32
1003.473	140.87
1003.636	66.67
1003.798	86.62
1003.96	92.24
1004.123	50.58
1004.285	35.67
1004.447	32.76
1004.609	74.03
1004.771	110.65
1004.933	33.92
1005.096	47.1
1005.258	36.63
1005.42	36.44
1005.582	107.16
1005.744	83.91
1005.906	22.68
1006.068	67.25
1006.23	7.38
1006.392	16.29
1006.554	25.2
1006.716	104.83
1006.878	77.32
1007.04	39.15
1007.202	39.73
1007.363	91.46
1007.525	66.86
1007.687	92.82
1007.849	106
1008.011	-11.8
1008.172	50.2
1008.334	47.1
1008.496	62.02
1008.658	9.9
1008.819	14.74
1008.981	31.6
1009.143	34.12
1009.304	58.92
1009.466	84.3
1009.627	118.2
1009.789	166.45
1009.95	73.06
1010.112	40.9
1010.273	62.6
1010.435	32.37
1010.596	39.93
1010.758	41.09
1010.919	32.76
1011.081	24.23
1011.242	32.57
1011.403	58.72
1011.565	40.32
1011.726	70.93
1011.887	17.07
1012.049	52.52
1012.21	61.24
1012.371	85.85
1012.532	-16.45
1012.693	32.76
1012.855	32.95
1013.016	40.32
1013.177	78.68
1013.338	52.13
1013.499	100.76
1013.66	55.23
1013.821	51.55
1013.982	36.44
1014.143	31.98
1014.304	31.98
1014.465	33.73
1014.626	62.6
1014.787	60.47
1014.948	106.19
1015.109	0.6
1015.27	67.44
1015.431	37.41
1015.592	2.15
1015.752	81
1015.913	40.51
1016.074	39.93
1016.235	42.06
1016.395	24.62
1016.556	26.95
1016.717	30.43
1016.877	71.9
1017.038	38.77
1017.199	54.07
1017.359	35.47
1017.52	36.83
1017.681	21.33
1017.841	18.81
1018.002	26.75
1018.162	27.14
1018.323	76.16
1018.483	38.77
1018.644	37.99
1018.804	5.44
1018.964	10.67
1019.125	10.09
1019.285	46.9
1019.446	13.19
1019.606	3.7
1019.766	-11.41
1019.926	33.34
1020.087	63.37
1020.247	-5.8
1020.407	33.73
1020.567	48.65
1020.728	26.37
1020.888	-8.51
1021.048	5.44
1021.208	6.8
1021.368	-3.47
1021.528	56.59
1021.688	38.38
1021.848	60.85
1022.008	41.48
1022.168	6.99
1022.328	29.27
1022.488	61.05
1022.648	21.72
1022.808	25.59
1022.968	47.48
1023.128	0.98
1023.288	24.23
1023.448	22.1
1023.608	37.22
1023.767	61.82
1023.927	3.89
1024.087	-4.25
1024.247	-29.05
1024.406	13.97
1024.566	14.16
1024.726	-2.5
1024.885	28.69
1025.045	56.2
1025.205	30.43
1025.364	24.43
1025.524	24.82
1025.683	32.57
1025.843	33.53
1026.003	13
1026.162	90.69
1026.321	39.35
1026.481	68.6
1026.64	9.9
1026.8	40.9
1026.959	30.82
1027.119	25.4
1027.278	27.14
1027.437	4.67
1027.597	20.94
1027.756	4.47
1027.915	23.27
1028.074	19.2
1028.234	18.42
1028.393	10.48
1028.552	-7.93
1028.711	-55.78
1028.87	72.09
1029.03	-22.85
1029.189	15.71
1029.348	-45.51
1029.507	-4.05
1029.666	-10.83
1029.825	-28.27
1029.984	7.96
1030.143	22.68
1030.302	2.73
1030.461	-20.71
1030.62	19.78
1030.779	31.6
1030.938	21.91
1031.097	-15.68
1031.255	31.21
1031.414	49.62
1031.573	48.65
1031.732	-24.01
1031.891	5.44
1032.049	70.93
1032.208	28.5
1032.367	12.8
1032.525	3.7
1032.684	8.73
1032.843	2.53
1033.001	-21.88
1033.16	138.93
1033.319	32.76
1033.477	33.73
1033.636	4.08
1033.794	-7.73
1033.953	38.38
1034.111	40.51
1034.27	-5.6
1034.428	63.18
1034.587	-24.2
1034.745	28.3
1034.903	22.3
1035.062	65.89
1035.22	-2.5
1035.378	23.65
1035.537	0.98
1035.695	37.41
1035.853	2.34
1036.011	48.26
1036.17	43.03
1036.328	-42.41
1036.486	31.79
1036.644	32.57
1036.802	-56.95
1036.96	6.02
1037.119	1.18
1037.277	-5.6
1037.435	-31.37
1037.593	-0.37
1037.751	23.85
1037.909	41.48
1038.067	41.48
