Data from oakcork_FLMT105791__202__17-32-15-056.txt Node

Date: Mon Mar 20 17:32:15 GMT 2023
User: antho
Spectrometer: FLMT10579
Trigger mode: 0
Integration Time (sec): 1.000000E-1
Scans to average: 10
Electric dark correction enabled: true
Nonlinearity correction enabled: false
Boxcar width: 0
XAxis mode: Wavelengths
Number of Pixels in Spectrum: 3648
>>>>>Begin Spectral Data<<<<<
345.248	-127.31
345.464	-127.31
345.681	-127.31
345.898	-149.98
346.114	-152.69
346.331	-31.4
346.548	41.45
346.764	0.18
346.981	-24.62
347.197	-0.6
347.414	8.7
347.631	-8.15
347.847	36.8
348.064	10.25
348.28	5.22
348.497	-31.02
348.713	-6.8
348.93	41.64
349.146	43.38
349.363	5.02
349.579	31.56
349.796	1.92
350.012	2.31
350.229	51.71
350.445	5.99
350.661	-15.9
350.878	22.65
351.094	18.78
351.311	20.52
351.527	22.65
351.743	10.64
351.96	15.68
352.176	48.42
352.392	19.16
352.609	32.73
352.825	10.45
353.041	16.45
353.257	9.67
353.474	13.55
353.69	48.81
353.906	31.37
354.122	-14.93
354.339	70.9
354.555	6.18
354.771	-12.42
354.987	61.98
355.203	54.04
355.42	17.42
355.636	-1.18
355.852	-20.17
356.068	32.15
356.284	-16.68
356.5	70.9
356.716	25.36
356.932	5.6
357.148	36.02
357.364	12.77
357.58	49.97
357.796	53.46
358.012	53.65
358.228	36.8
358.444	-42.83
358.66	67.02
358.876	14.51
359.092	0.76
359.308	34.86
359.524	48.23
359.74	4.63
359.956	0.18
360.172	33.7
360.388	64.31
360.604	36.99
360.819	86.01
361.035	42.22
361.251	33.31
361.467	0.57
361.683	71.86
361.898	33.7
362.114	47.84
362.33	31.56
362.546	42.22
362.762	40.86
362.977	39.12
363.193	-13
363.409	43.96
363.624	19.16
363.84	54.81
364.056	23.62
364.271	43.77
364.487	59.27
364.703	18.39
364.918	12.96
365.134	31.76
365.35	17.42
365.565	112.36
365.781	39.51
365.996	52.49
366.212	97.05
366.427	67.21
366.643	25.17
366.858	12
367.074	8.51
367.289	62.76
367.505	129.02
367.72	-0.98
367.936	10.64
368.151	51.52
368.367	55.98
368.582	49.2
368.798	23.81
369.013	119.53
369.228	49.78
369.444	56.36
369.659	70.31
369.874	61.6
370.09	82.71
370.305	-11.83
370.52	39.51
370.736	102.48
370.951	20.33
371.166	76.51
371.381	111.39
371.597	65.66
371.812	18.39
372.027	21.3
372.242	67.8
372.458	124.18
372.673	34.66
372.888	36.8
373.103	65.47
373.318	152.46
373.533	67.21
373.749	34.86
373.964	-29.66
374.179	98.02
374.394	35.63
374.609	81.94
374.824	17.42
375.039	82.52
375.254	12
375.469	102.28
375.684	42.22
375.899	107.13
376.114	49.97
376.329	55.01
376.544	91.05
376.759	68.76
376.974	26.14
377.189	51.52
377.404	50.94
377.619	76.32
377.834	5.22
378.049	65.86
378.264	30.01
378.478	74.77
378.693	35.25
378.908	112.16
379.123	37.96
379.338	70.51
379.553	80.97
379.767	72.83
379.982	72.64
380.197	88.72
380.412	46.87
380.626	40.86
380.841	131.34
381.056	83.3
381.271	128.83
381.485	47.84
381.7	51.71
381.915	70.12
382.129	56.56
382.344	68.38
382.559	54.43
382.773	65.66
382.988	14.13
383.202	85.43
383.417	30.98
383.632	118.56
383.846	69.73
384.061	77.48
384.275	61.01
384.49	70.12
384.704	61.79
384.919	79.03
385.133	79.03
385.348	111.19
385.562	51.91
385.777	108.48
385.991	82.52
386.206	75.74
386.42	61.4
386.634	99.76
386.849	101.31
387.063	103.06
387.277	66.05
387.492	74.19
387.706	41.83
387.92	87.56
388.135	98.6
388.349	113.71
388.563	101.7
388.778	109.64
388.992	91.24
389.206	109.26
389.42	165.64
389.635	99.38
389.849	148.01
390.063	166.03
390.277	118.17
390.491	138.32
390.706	134.83
390.92	144.71
391.134	114.1
391.348	166.41
391.562	88.72
391.776	135.41
391.99	124.76
392.205	162.34
392.419	101.89
392.633	116.04
392.847	182.11
393.061	72.64
393.275	165.64
393.489	98.99
393.703	50.75
393.917	99.76
394.131	50.94
394.345	128.63
394.559	147.62
394.773	102.28
394.986	159.83
395.2	150.33
395.414	174.94
395.628	164.48
395.842	174.94
396.056	166.8
396.27	108.68
396.484	137.16
396.697	138.13
396.911	115.46
397.125	132.7
397.339	103.64
397.553	91.82
397.766	172.23
397.98	165.44
398.194	218.34
398.408	171.84
398.621	237.52
398.835	231.71
399.049	243.33
399.262	273.36
399.476	263.67
399.69	269.87
399.903	295.64
400.117	238.1
400.331	267.74
400.544	226.09
400.758	329.74
400.971	271.23
401.185	291.57
401.398	254.18
401.612	329.94
401.826	298.16
402.039	320.83
402.253	281.69
402.466	304.17
402.68	269.1
402.893	289.25
403.106	292.93
403.32	270.07
403.533	283.44
403.747	269.1
403.96	295.45
404.174	308.24
404.387	237.71
404.6	290.41
404.814	343.3
405.027	283.05
405.24	278.79
405.454	289.25
405.667	345.24
405.88	252.63
406.094	303
406.307	334.2
406.52	323.93
406.733	270.84
406.947	247.79
407.16	342.72
407.373	345.05
407.586	301.65
407.799	267.74
408.012	347.37
408.226	297.58
408.439	360.55
408.652	284.99
408.865	352.99
409.078	375.85
409.291	346.79
409.504	283.44
409.717	342.14
409.93	356.87
410.143	341.56
410.357	261.74
410.57	259.41
410.783	303.2
410.996	322.19
411.209	322.38
411.421	370.43
411.634	342.53
411.847	327.22
412.06	371.01
412.273	362.68
412.486	350.47
412.699	447.54
412.912	352.41
413.125	368.3
413.338	347.57
413.55	356.48
413.763	324.51
413.976	345.82
414.189	318.7
414.402	364.62
414.615	414.6
414.827	352.22
415.04	430.3
415.253	381.86
415.466	390.19
415.678	419.25
415.891	377.21
416.104	371.01
416.316	379.53
416.529	368.3
416.742	445.02
416.954	419.64
417.167	398.72
417.38	381.08
417.592	417.9
417.805	363.84
418.017	363.84
418.23	396.2
418.442	385.15
418.655	360.16
418.868	388.83
419.08	403.95
419.293	436.11
419.505	395.42
419.718	412.47
419.93	439.21
420.142	387.87
420.355	434.95
420.567	421.58
420.78	411.31
420.992	417.12
421.205	463.04
421.417	395.62
421.629	408.98
421.842	393.48
422.054	373.92
422.266	428.75
422.479	448.7
422.691	438.43
422.903	428.17
423.115	412.67
423.328	395.03
423.54	432.04
423.752	429.52
423.964	437.47
424.177	444.83
424.389	416.54
424.601	530.85
424.813	474.47
425.025	482.8
425.238	448.9
425.45	410.92
425.662	413.44
425.874	687.4
426.086	446.96
426.298	466.53
426.51	453.93
426.722	435.14
426.934	418.87
427.146	451.61
427.358	412.86
427.57	455.48
427.782	448.7
427.994	450.64
428.206	433.98
428.418	424.1
428.63	473.7
428.842	498.3
429.054	473.31
429.266	457.23
429.478	418.67
429.69	448.31
429.902	395.42
430.114	447.54
430.325	423.13
430.537	394.65
430.749	359.58
430.961	309.98
431.173	349.7
431.384	403.56
431.596	352.99
431.808	404.92
432.02	499.27
432.231	523.68
432.443	564.37
432.655	494.23
432.867	481.06
433.078	519.03
433.29	568.24
433.502	561.85
433.713	546.74
433.925	546.54
434.136	550.81
434.348	480.67
434.56	460.52
434.771	599.24
434.983	480.09
435.194	517.68
435.406	537.83
435.617	578.13
435.829	607.19
436.04	577.93
436.252	610.68
436.463	635.28
436.675	620.36
436.886	591.11
437.098	615.91
437.309	659.5
437.521	600.99
437.732	579.68
437.943	608.74
438.155	577.54
438.366	519.42
438.578	639.35
438.789	568.63
439	584.91
439.211	579.29
439.423	583.94
439.634	603.89
439.845	626.37
440.057	616.29
440.268	654.46
440.479	615.33
440.69	635.28
440.902	634.31
441.113	603.51
441.324	603.89
441.535	640.71
441.746	678.1
441.957	613.39
442.168	650.39
442.38	683.33
442.591	692.82
442.802	625.59
443.013	651.56
443.224	692.05
443.435	646.32
443.646	644
443.857	674.61
444.068	659.69
444.279	662.21
444.49	739.13
444.701	714.33
444.912	767.03
445.123	728.28
445.334	709.1
445.545	704.06
445.756	695.73
445.967	651.36
446.178	666.67
446.388	715.49
446.599	678.29
446.81	732.35
447.021	677.13
447.232	716.07
447.443	776.14
447.653	707.55
447.864	759.86
448.075	743.78
448.286	761.99
448.496	729.64
448.707	771.29
448.918	724.6
449.129	795.32
449.339	718.79
449.55	771.29
449.761	730.8
449.971	773.62
450.182	753.08
450.393	789.31
450.603	773.04
450.814	807.72
451.024	805.2
451.235	865.45
451.446	851.89
451.656	824.18
451.867	765.87
452.077	800.55
452.288	827.87
452.498	828.83
452.709	785.24
452.919	782.14
453.13	754.05
453.34	780.4
453.55	712.39
453.761	776.72
453.971	786.4
454.182	787.18
454.392	794.54
454.602	856.54
454.813	832.32
455.023	832.32
455.233	739.9
455.444	832.71
455.654	737
455.864	809.65
456.075	806.36
456.285	798.61
456.495	834.26
456.705	827.87
456.916	895.68
457.126	887.15
457.336	822.05
457.546	808.3
457.756	840.46
457.967	897.61
458.177	817.98
458.387	831.74
458.597	828.25
458.807	836.97
459.017	816.43
459.227	819.15
459.437	820.5
459.647	821.28
459.857	862.16
460.068	843.17
460.278	914.08
460.488	850.53
460.698	913.7
460.908	872.62
461.117	871.65
461.327	846.47
461.537	906.91
461.747	882.5
461.957	888.9
462.167	983.25
462.377	916.6
462.587	877.66
462.797	900.91
463.007	896.06
463.216	931.52
463.426	955.16
463.636	941.01
463.846	860.42
464.056	886.76
464.265	951.86
464.475	886.18
464.685	929.39
464.895	944.5
465.104	916.41
465.314	961.75
465.524	901.3
465.733	881.34
465.943	961.16
466.153	1008.83
466.362	994.68
466.572	976.66
466.782	926.48
466.991	960.58
467.201	986.16
467.41	922.41
467.62	1004.37
467.829	936.56
468.039	993.52
468.249	994.29
468.458	974.73
468.668	975.89
468.877	993.91
469.086	1048.35
469.296	1055.13
469.505	1008.24
469.715	1045.83
469.924	1045.64
470.134	1049.13
470.343	1042.54
470.552	1014.25
470.762	978.6
470.971	975.89
471.18	1051.64
471.39	1023.16
471.599	1020.26
471.808	1055.71
472.018	1079.74
472.227	1137.67
472.436	1145.8
472.645	1106.47
472.855	1121.39
473.064	1166.54
473.273	1139.8
473.482	1152.39
473.691	1190.75
473.901	1145.61
474.11	1138.06
474.319	1230.09
474.528	1173.12
474.737	1257.6
474.946	1209.55
475.155	1194.24
475.364	1236.87
475.573	1194.63
475.783	1248.68
475.992	1229.12
476.201	1248.68
476.41	1216.52
476.619	1207.8
476.828	1180.29
477.037	1220.79
477.245	1242.29
477.454	1303.52
477.663	1269.22
477.872	1248.88
478.081	1372.88
478.29	1262.63
478.499	1374.43
478.708	1348.08
478.917	1391.67
479.125	1372.1
479.334	1333.55
479.543	1400.78
479.752	1365.32
479.961	1395.55
480.169	1437.39
480.378	1395.93
480.587	1542.21
480.796	1482.34
481.004	1436.43
481.213	1503.46
481.422	1466.46
481.63	1482.54
481.839	1508.89
482.048	1574.76
482.256	1524
482.465	1520.51
482.674	1563.91
482.882	1575.92
483.091	1609.64
483.299	1550.35
483.508	1573.21
483.716	1588.32
483.925	1639.28
484.134	1558.68
484.342	1545.12
484.551	1611.57
484.759	1579.61
484.967	1639.09
485.176	1622.23
485.384	1636.76
485.593	1641.99
485.801	1617.39
486.01	1540.27
486.218	1489.13
486.426	1403.1
486.635	1376.17
486.843	1409.69
487.051	1452.31
487.26	1493
487.468	1548.02
487.676	1557.71
487.885	1591.81
488.093	1641.02
488.301	1671.63
488.509	1692.75
488.717	1755.53
488.926	1716
489.134	1649.35
489.342	1711.16
489.55	1634.63
489.758	1736.54
489.967	1750.49
490.175	1833.03
490.383	1784.2
490.591	1901.81
490.799	1790.01
491.007	1869.64
491.215	1865.58
491.423	1825.08
491.631	1833.22
491.839	1833.41
492.047	1826.25
492.255	1744.1
492.463	1754.95
492.671	1724.72
492.879	1845.23
493.087	1824.11
493.295	1846.98
493.503	1869.06
493.711	1945.98
493.919	1925.25
494.127	1908.01
494.334	1939.78
494.542	1912.08
494.75	1985.12
494.958	1919.24
495.166	1991.12
495.374	2014.57
495.581	2009.72
495.789	2000.04
495.997	2066.69
496.205	1959.16
496.412	1982.41
496.62	2007.21
496.828	2006.04
497.035	2015.15
497.243	2033.17
497.451	2031.23
497.658	2044.99
497.866	2008.56
498.074	2083.35
498.281	1982.99
498.489	2057.58
498.696	2036.07
498.904	1966.91
499.112	1957.99
499.319	2074.24
499.527	2031.62
499.734	2072.3
499.942	2007.21
500.149	2047.31
500.357	2060.68
500.564	2002.36
500.771	2045.37
500.979	1960.12
501.186	1970.59
501.394	2034.33
501.601	1985.31
501.808	1989.38
502.016	1989.77
502.223	1966.13
502.43	2006.62
502.638	2025.22
502.845	2020.38
503.052	2053.9
503.26	2038.98
503.467	2087.61
503.674	2075.4
503.881	2030.65
504.089	2120.35
504.296	2073.47
504.503	1978.92
504.71	2034.14
504.917	2018.44
505.125	2062.04
505.332	2094.39
505.539	2121.71
505.746	2218
505.953	2160.46
506.16	2191.65
506.367	2217.42
506.574	2255.98
506.781	2247.65
506.988	2181.38
507.195	2189.52
507.402	2162.98
507.609	2190.1
507.816	2120.93
508.023	2166.66
508.23	2171.31
508.437	2066.3
508.644	2141.47
508.851	2235.44
509.058	2251.13
509.265	2199.98
509.472	2262.95
509.679	2303.83
509.885	2223.23
510.092	2235.63
510.299	2222.85
510.506	2214.71
510.713	2228.27
510.92	2244.16
511.126	2279.42
511.333	2296.86
511.54	2289.3
511.746	2359.24
511.953	2322.43
512.16	2372.42
512.367	2316.04
512.573	2318.56
512.78	2322.82
512.987	2319.53
513.193	2303.64
513.4	2219.75
513.606	2261.01
513.813	2287.36
514.02	2309.84
514.226	2318.75
514.433	2288.14
514.639	2238.73
514.846	2272.64
515.052	2214.51
515.259	2257.91
515.465	2306.35
515.672	2309.45
515.878	2379.2
516.085	2321.27
516.291	2357.5
516.497	2303.64
516.704	2279.03
516.91	2220.13
517.117	2116.48
517.323	2044.4
517.529	2099.82
517.736	2074.05
517.942	2147.09
518.148	2136.24
518.354	2188.94
518.561	2214.71
518.767	2126.55
518.973	2235.05
519.179	2258.88
519.386	2236.6
519.592	2224.2
519.798	2254.23
520.004	2405.55
520.21	2345.49
520.417	2426.86
520.623	2440.23
520.829	2431.9
521.035	2405.94
521.241	2427.25
521.447	2431.32
521.653	2528
521.859	2444.88
522.065	2449.92
522.271	2546.4
522.477	2528.77
522.683	2553.57
522.889	2494.87
523.095	2452.63
523.301	2471.04
523.507	2438.1
523.713	2505.14
523.919	2478.4
524.125	2558.22
524.331	2555.51
524.537	2640.76
524.742	2621
524.948	2640.56
525.154	2637.08
525.36	2723.68
525.566	2607.82
525.772	2653.35
525.977	2601.82
526.183	2648.9
526.389	2639.79
526.595	2536.52
526.8	2501.45
527.006	2427.06
527.212	2401.48
527.417	2384.24
527.623	2363.12
527.829	2490.41
528.034	2521.22
528.24	2554.54
528.446	2537.3
528.651	2637.27
528.857	2661.68
529.062	2749.26
529.268	2714
529.473	2738.6
529.679	2745.96
529.884	2789.56
530.09	2769.99
530.295	2757.39
530.501	2734.73
530.706	2759.33
530.912	2759.72
531.117	2777.74
531.323	2799.05
531.528	2869.77
531.733	2820.36
531.939	2804.09
532.144	2792.27
532.35	2780.45
532.555	2836.25
532.76	2741.12
532.966	2755.46
533.171	2715.35
533.376	2658.39
533.581	2679.9
533.787	2748.87
533.992	2763.4
534.197	2762.63
534.402	2796.14
534.607	2820.17
534.813	2917.24
535.018	2831.21
535.223	2817.26
535.428	2875.58
535.633	2896.89
535.838	2924.6
536.043	2938.74
536.249	2991.83
536.454	2930.22
536.659	2925.18
536.864	2862.41
537.069	2854.66
537.274	2882.56
537.479	2894.37
537.684	2857.37
537.889	2876.94
538.094	2925.18
538.299	2933.9
538.504	2938.35
538.708	2909.87
538.913	2940.29
539.118	2935.84
539.323	2955.4
539.528	2906.39
539.733	2918.79
539.938	2905.22
540.142	2920.34
540.347	2860.86
540.552	2855.82
540.757	2856.98
540.962	2855.24
541.166	2791.11
541.371	2825.21
541.576	2860.86
541.781	2815.91
541.985	2914.52
542.19	2906.58
542.395	2998.61
542.599	2995.12
542.804	2980.01
543.008	3007.91
543.213	2925.37
543.418	2879.26
543.622	3050.53
543.827	2911.81
544.031	3052.47
544.236	3036
544.44	3014.11
544.645	3134.04
544.849	3001.71
545.054	3042.01
545.258	3117.18
545.463	3093.55
545.667	2958.12
545.872	3065.45
546.076	3033.1
546.281	3046.85
546.485	3023.02
546.689	3066.61
546.894	3100.13
547.098	3103.04
547.302	3077.66
547.507	3057.32
547.711	3075.53
547.915	3086.38
548.119	2986.4
548.324	3006.94
548.528	3078.24
548.732	3062.16
548.936	3084.05
549.141	3071.46
549.345	3067.97
549.549	3084.05
549.753	3102.07
549.957	3130.16
550.161	3155.16
550.366	3063.32
550.57	3055.77
550.774	3114.66
550.978	3076.11
551.182	3075.72
551.386	3103.62
551.59	3092
551.794	3083.08
551.998	3082.7
552.202	3072.43
552.406	3066.81
552.61	3143.34
552.814	3110.79
553.018	3156.51
553.222	3119.51
553.426	3056.93
553.63	3167.94
553.833	3082.11
554.037	3011.59
554.241	3119.31
554.445	3111.76
554.649	3113.31
554.853	3042.98
555.056	3154.19
555.26	3176.08
555.464	3172.79
555.668	3127.26
555.871	3219.48
556.075	3200.3
556.279	3098
556.483	3029.42
556.686	3044.72
556.89	3093.74
557.094	3064.48
557.297	3012.75
557.501	3094.71
557.704	2973.81
557.908	3057.7
558.112	3000.93
558.315	3108.27
558.519	3011.59
558.722	2976.91
558.926	2980.01
559.129	2883.91
559.333	2922.47
559.536	2906.77
559.74	2879.84
559.943	2872.48
560.147	2882.75
560.35	2890.31
560.553	2898.05
560.757	2901.35
560.96	2979.62
561.164	2921.11
561.367	3000.35
561.57	2967.22
561.774	2930.8
561.977	2960.25
562.18	2884.88
562.384	3040.65
562.587	2936.03
562.79	2935.25
562.993	2930.99
563.197	2974.39
563.4	2998.42
563.603	2981.56
563.806	2998.61
564.009	2890.69
564.212	2958.31
564.416	2856.21
564.619	2889.14
564.822	2847.68
565.025	2924.4
565.228	2860.08
565.431	2908.32
565.634	2817.26
565.837	2788.59
566.04	2851.17
566.243	2817.07
566.446	2705.28
566.649	2828.89
566.852	2760.69
567.055	2830.05
567.258	2838.38
567.461	2874.81
567.664	2901.15
567.867	2777.16
568.07	2799.44
568.273	2829.66
568.475	2853.49
568.678	2769.41
568.881	2732.79
569.084	2748.87
569.287	2675.44
569.489	2687.26
569.692	2729.88
569.895	2749.45
570.098	2639.4
570.3	2641.34
570.503	2601.04
570.706	2631.26
570.909	2631.85
571.111	2592.9
571.314	2555.7
571.516	2567.13
571.719	2623.52
571.922	2606.85
572.124	2589.42
572.327	2607.43
572.529	2589.03
572.732	2625.07
572.935	2627.58
573.137	2663.81
573.34	2617.9
573.542	2647.73
573.745	2654.13
573.947	2666.53
574.15	2625.26
574.352	2584.18
574.554	2695.2
574.757	2554.93
574.959	2569.46
575.162	2605.88
575.364	2547.18
575.566	2629.13
575.769	2562.1
575.971	2590
576.173	2435.39
576.376	2502.04
576.578	2546.02
576.78	2545.24
576.982	2502.81
577.185	2502.81
577.387	2464.06
577.589	2478.79
577.791	2580.12
577.993	2516.37
578.196	2517.15
578.398	2525.09
578.6	2539.62
578.802	2456.5
579.004	2473.36
579.206	2459.6
579.408	2520.64
579.61	2477.04
579.812	2519.47
580.014	2512.5
580.216	2526.45
580.418	2496.03
580.62	2515.21
580.822	2467.55
581.024	2546.02
581.226	2583.22
581.428	2549.31
581.63	2639.01
581.832	2527.8
582.034	2624.1
582.236	2545.63
582.438	2629.13
582.64	2595.03
582.841	2634.56
583.043	2723.68
583.245	2592.52
583.447	2665.36
583.649	2632.81
583.85	2613.05
584.052	2663.81
584.254	2558.42
584.456	2603.56
584.657	2584.38
584.859	2602.98
585.061	2560.16
585.262	2532.26
585.464	2517.92
585.666	2592.9
585.867	2499.71
586.069	2578.37
586.27	2550.86
586.472	2525.29
586.674	2510.95
586.875	2523.54
587.077	2529.94
587.278	2540.2
587.48	2496.61
587.681	2645.21
587.883	2541.75
588.084	2475.49
588.285	2508.62
588.487	2450.5
588.688	2468.32
588.89	2305.77
589.091	2290.46
589.292	2268.38
589.494	2260.63
589.695	2211.61
589.896	2158.13
590.098	2129.85
590.299	2234.28
590.5	2180.42
590.702	2246.87
590.903	2243.19
591.104	2358.66
591.305	2351.88
591.507	2384.24
591.708	2350.72
591.909	2334.06
592.11	2418.53
592.311	2395.09
592.512	2275.93
592.714	2263.92
592.915	2318.17
593.116	2361.96
593.317	2381.72
593.518	2392.37
593.719	2346.26
593.92	2443.72
594.121	2408.46
594.322	2324.76
594.523	2352.27
594.724	2270.51
594.925	2313.52
595.126	2323.79
595.327	2302.48
595.528	2373.39
595.729	2340.84
595.929	2292.79
596.13	2340.64
596.331	2393.54
596.532	2363.12
596.733	2444.88
596.934	2395.09
597.135	2426.47
597.335	2402.64
597.536	2378.04
597.737	2381.14
597.938	2361.96
598.138	2383.66
598.339	2410.59
598.54	2400.32
598.74	2347.62
598.941	2331.93
599.142	2444.3
599.342	2348.59
599.543	2351.11
599.744	2388.69
599.944	2389.86
600.145	2342.78
600.345	2366.41
600.546	2440.62
600.746	2448.17
600.947	2475.88
601.147	2378.04
601.348	2439.65
601.548	2397.61
601.749	2376.1
601.949	2322.24
602.15	2374.55
602.35	2330.76
602.551	2381.33
602.751	2323.79
602.951	2371.06
603.152	2307.13
603.352	2403.61
603.552	2398.77
603.753	2389.08
603.953	2442.17
604.153	2396.83
604.354	2389.47
604.554	2389.47
604.754	2403.42
604.954	2351.69
605.155	2428.41
605.355	2356.53
605.555	2434.03
605.755	2409.81
605.955	2362.54
606.155	2414.07
606.356	2388.11
606.556	2391.41
606.756	2397.8
606.956	2322.82
607.156	2427.64
607.356	2372.61
607.556	2411.17
607.756	2343.94
607.956	2415.43
608.156	2401.09
608.356	2369.32
608.556	2387.72
608.756	2371.84
608.956	2313.71
609.156	2340.84
609.356	2305.38
609.556	2325.53
609.755	2338.9
609.955	2313.13
610.155	2335.8
610.355	2396.44
610.555	2283.29
610.755	2327.66
610.954	2232.92
611.154	2347.81
611.354	2346.07
611.554	2249.2
611.753	2331.15
611.953	2249.78
612.153	2345.88
612.352	2331.34
612.552	2207.54
612.752	2217.42
612.951	2281.74
613.151	2264.7
613.351	2248.03
613.55	2279.61
613.75	2270.51
613.949	2261.98
614.149	2223.04
614.348	2255.2
614.548	2234.86
614.747	2165.88
614.947	2197.85
615.146	2180.42
615.346	2233.89
615.545	2253.46
615.745	2254.62
615.944	2269.93
616.144	2238.15
616.343	2240.67
616.542	2187.58
616.742	2182.93
616.941	2177.32
617.14	2119
617.34	2145.54
617.539	2182.93
617.738	2146.7
617.938	2232.15
618.137	2184.29
618.336	2145.93
618.535	2200.95
618.734	2241.06
618.934	2204.44
619.133	2215.1
619.332	2235.05
619.531	2219.36
619.73	2216.26
619.929	2241.83
620.128	2246.48
620.328	2251.71
620.527	2206.96
620.726	2247.06
620.925	2214.32
621.124	2223.23
621.323	2188.75
621.522	2125
621.721	2175.57
621.92	2161.62
622.119	2203.86
622.318	2127.52
622.517	2143.8
622.715	2179.25
622.914	2079.86
623.113	2179.06
623.312	2072.3
623.511	2170.92
623.71	2097.69
623.909	2100.4
624.107	2209.48
624.306	2097.3
624.505	2057.58
624.704	2075.21
624.902	2061.84
625.101	2149.22
625.3	2072.89
625.499	2051.38
625.697	2055.06
625.896	2071.34
626.095	2062.62
626.293	2023.09
626.492	2032.59
626.69	2085.48
626.889	2043.63
627.088	2092.26
627.286	2067.27
627.485	2040.53
627.683	2029.29
627.882	2009.14
628.08	1910.72
628.279	1949.27
628.477	2034.91
628.676	1910.72
628.874	1996.16
629.073	1950.05
629.271	1917.89
629.469	1939.97
629.668	1946.76
629.866	1934.74
630.065	1931.64
630.263	2016.89
630.461	1919.63
630.66	1956.64
630.858	1997.52
631.056	2007.21
631.254	1995.97
631.453	1939.39
631.651	1970.01
631.849	1950.63
632.047	1943.85
632.245	1939.39
632.444	1955.67
632.642	1996.55
632.84	1997.71
633.038	1988.99
633.236	1950.24
633.434	1945.98
633.632	1976.4
633.83	1942.49
634.028	2039.56
634.227	1993.84
634.425	2071.72
634.623	2016.12
634.821	2015.73
635.019	2007.01
635.216	2019.6
635.414	2077.34
635.612	2041.5
635.81	2038.98
636.008	2044.02
636.206	2010.69
636.404	2041.89
636.602	1967.68
636.8	1998.29
636.997	2019.99
637.195	2051.96
637.393	1996.36
637.591	2070.17
637.789	2043.05
637.986	2031.42
638.184	2036.65
638.382	2124.03
638.58	2078.5
638.777	2119
638.975	2069.4
639.173	2032.59
639.37	2083.54
639.568	2059.9
639.765	2052.93
639.963	2033.55
640.161	2042.85
640.358	2062.23
640.556	1989.57
640.753	1955.86
640.951	1970.01
641.148	2014.57
641.346	1999.26
641.543	2013.99
641.741	1992.09
641.938	1940.36
642.136	2027.35
642.333	1924.86
642.531	2034.91
642.728	2009.92
642.925	2022.9
643.123	1976.79
643.32	2010.31
643.517	1985.31
643.715	1988.41
643.912	1974.85
644.109	2009.34
644.306	1973.88
644.504	1973.49
644.701	2005.27
644.898	2014.37
645.095	1935.32
645.293	1954.51
645.49	2008.95
645.687	1993.26
645.884	1994.22
646.081	1868.09
646.278	1920.02
646.475	1895.8
646.672	1897.74
646.87	1948.69
647.067	1932.81
647.264	1917.69
647.461	1863.06
647.658	1847.94
647.855	1895.22
648.052	1866.93
648.249	1793.89
648.446	1859.57
648.642	1863.64
648.839	1821.4
649.036	1810.55
649.233	1796.21
649.43	1800.86
649.627	1792.53
649.824	1801.45
650.021	1823.34
650.217	1805.51
650.414	1842.71
650.611	1833.61
650.808	1894.44
651.004	1878.36
651.201	1879.72
651.398	1928.74
651.595	1838.84
651.791	1797.96
651.988	1872.36
652.185	1801.83
652.381	1882.04
652.578	1787.3
652.775	1832.45
652.971	1836.13
653.168	1829.35
653.364	1899.29
653.561	1776.26
653.757	1820.43
653.954	1882.24
654.15	1822.95
654.347	1892.51
654.543	1871
654.74	1809.39
654.936	1771.41
655.133	1815.2
655.329	1788.66
655.525	1799.9
655.722	1772.19
655.918	1750.68
656.115	1687.13
656.311	1637.34
656.507	1543.18
656.704	1534.46
656.9	1570.31
657.096	1593.75
657.292	1595.88
657.489	1702.83
657.685	1669.5
657.881	1654.39
658.077	1692.95
658.273	1769.67
658.47	1797.76
658.666	1748.75
658.862	1786.33
659.058	1767.73
659.254	1816.75
659.45	1789.43
659.646	1798.15
659.842	1797.76
660.038	1831.67
660.234	1769.67
660.43	1794.08
660.626	1879.33
660.822	1811.33
661.018	1829.73
661.214	1820.43
661.41	1792.73
661.606	1818.69
661.802	1817.33
661.998	1811.33
662.194	1815.78
662.39	1829.93
662.586	1819.08
662.781	1811.91
662.977	1831.67
663.173	1792.92
663.369	1780.71
663.564	1810.55
663.76	1844.07
663.956	1785.75
664.152	1838.26
664.347	1725.88
664.543	1817.14
664.739	1778.78
664.934	1742.16
665.13	1741.58
665.326	1827.41
665.521	1811.52
665.717	1765.8
665.912	1766.76
666.108	1706.51
666.304	1771.22
666.499	1778.39
666.695	1665.24
666.89	1778.97
667.086	1783.23
667.281	1788.08
667.477	1834.96
667.672	1765.6
667.867	1712.52
668.063	1787.11
668.258	1698.37
668.454	1743.13
668.649	1808.03
668.844	1760.37
669.04	1760.95
669.235	1737.12
669.43	1730.15
669.626	1735.77
669.821	1694.5
670.016	1679.97
670.211	1718.72
670.407	1722.78
670.602	1762.7
670.797	1709.61
670.992	1757.08
671.187	1711.93
671.382	1767.93
671.578	1669.7
671.773	1746.23
671.968	1676.48
672.163	1701.47
672.358	1726.08
672.553	1656.72
672.748	1694.88
672.943	1779.36
673.138	1703.8
673.333	1733.25
673.528	1693.33
673.723	1723.56
673.918	1706.51
674.113	1668.53
674.308	1772.19
674.503	1711.93
674.698	1691.01
674.892	1673.38
675.087	1703.22
675.282	1681.9
675.477	1644.9
675.672	1688.1
675.867	1655.55
676.061	1627.65
676.256	1621.65
676.451	1668.53
676.646	1687.91
676.84	1612.35
677.035	1626.3
677.23	1639.28
677.424	1680.35
677.619	1698.37
677.814	1721.23
678.008	1671.25
678.203	1636.76
678.397	1644.9
678.592	1641.22
678.787	1695.27
678.981	1629.79
679.176	1649.94
679.37	1668.34
679.565	1631.14
679.759	1654.39
679.954	1665.44
680.148	1697.6
680.342	1715.23
680.537	1690.43
680.731	1634.24
680.926	1682.29
681.12	1629.01
681.314	1624.36
681.509	1631.53
681.703	1642.38
681.897	1675.12
682.092	1640.83
682.286	1602.47
682.48	1653.04
682.674	1656.91
682.869	1608.28
683.063	1629.79
683.257	1700.31
683.451	1578.83
683.645	1635.4
683.839	1628.04
684.034	1576.51
684.228	1617.19
684.422	1546.67
684.616	1577.47
684.81	1643.54
685.004	1607.89
685.198	1630.56
685.392	1612.54
685.586	1578.44
685.78	1575.15
685.974	1600.53
686.168	1591.42
686.362	1636.76
686.556	1461.61
686.75	1426.35
686.944	1350.98
687.138	1316.69
687.331	1166.73
687.525	1150.84
687.719	1105.12
687.913	1188.24
688.107	1154.91
688.301	1171.77
688.494	1250.04
688.688	1195.79
688.882	1148.32
689.076	1177.19
689.269	1188.43
689.463	1265.93
689.657	1207.03
689.85	1193.85
690.044	1216.33
690.238	1250.04
690.431	1259.92
690.625	1254.69
690.818	1294.8
691.012	1335.29
691.205	1331.61
691.399	1314.37
691.593	1375.2
691.786	1388.18
691.98	1370.16
692.173	1439.33
692.366	1390.9
692.56	1429.84
692.753	1439.33
692.947	1408.72
693.14	1456.38
693.333	1438.36
693.527	1375.59
693.72	1430.03
693.914	1396.9
694.107	1365.9
694.3	1428.29
694.493	1385.66
694.687	1445.92
694.88	1413.95
695.073	1471.88
695.266	1449.41
695.46	1420.34
695.653	1512.96
695.846	1460.06
696.039	1469.36
696.232	1429.84
696.425	1497.07
696.618	1531.75
696.812	1555.39
697.005	1591.42
697.198	1650.32
697.391	1574.18
697.584	1620.29
697.777	1629.2
697.97	1633.27
698.163	1648
698.356	1626.69
698.549	1674.54
698.742	1641.02
698.935	1590.84
699.127	1648.39
699.32	1592
699.513	1632.89
699.706	1603.24
699.899	1670.08
700.092	1601.3
700.285	1639.67
700.477	1591.62
700.67	1637.34
700.863	1629.01
701.056	1734.8
701.248	1684.62
701.441	1703.8
701.634	1677.25
701.826	1769.09
702.019	1607.5
702.212	1716.78
702.404	1668.34
702.597	1677.64
702.79	1686.55
702.982	1739.45
703.175	1821.4
703.367	1753.98
703.56	1795.83
703.752	1872.16
703.945	1877.2
704.137	1838.06
704.33	1846.98
704.522	1890.57
704.715	1907.81
704.907	1911.88
705.1	1910.53
705.292	1951.99
705.484	1921.96
705.677	1947.92
705.869	1986.09
706.061	1989.77
706.254	2043.05
706.446	1942.88
706.638	2000.62
706.831	2081.22
707.023	2009.14
707.215	2084.51
707.407	2078.5
707.599	2049.83
707.792	2134.88
707.984	2116.87
708.176	2162.59
708.368	2128.1
708.56	2151.35
708.752	2191.46
708.944	2152.13
709.136	2203.08
709.329	2182.55
709.521	2304.41
709.713	2215.68
709.905	2278.26
710.097	2279.61
710.289	2250.55
710.481	2232.92
710.672	2303.83
710.864	2303.25
711.056	2346.46
711.248	2332.7
711.44	2327.08
711.632	2320.3
711.824	2369.51
712.016	2430.74
712.207	2427.64
712.399	2385.01
712.591	2495.64
712.783	2458.25
712.975	2468.13
713.166	2410.97
713.358	2479.75
713.55	2543.5
713.741	2529.55
713.933	2513.47
714.125	2509.01
714.316	2490.02
714.508	2589.22
714.7	2550.08
714.891	2533.23
715.083	2592.32
715.274	2573.72
715.466	2567.72
715.657	2610.73
715.849	2529.35
716.04	2542.72
716.232	2494.87
716.423	2561.32
716.615	2442.36
716.806	2420.86
716.998	2377.65
717.189	2276.32
717.381	2190.3
717.572	2196.11
717.763	2174.41
717.955	2173.83
718.146	2132.75
718.337	2088.97
718.528	2008.37
718.72	1922.93
718.911	2012.24
719.102	1984.15
719.293	1979.69
719.485	2013.79
719.676	1966.52
719.867	1935.32
720.058	1949.66
720.249	1959.35
720.44	1956.06
720.632	2062.81
720.823	2110.67
721.014	2243.58
721.205	2316.43
721.396	2422.02
721.587	2512.5
721.778	2505.72
721.969	2579.53
722.16	2624.68
722.351	2681.25
722.542	2783.94
722.733	2764.37
722.924	2741.31
723.115	2771.73
723.305	2707.21
723.496	2736.28
723.687	2610.15
723.878	2585.54
724.069	2593.29
724.26	2633.2
724.45	2565.39
724.641	2521.6
724.832	2605.11
725.023	2559.97
725.213	2539.24
725.404	2509.2
725.595	2563.84
725.785	2538.46
725.976	2607.63
726.167	2597.55
726.357	2618.09
726.548	2744.22
726.739	2667.69
726.929	2729.69
727.12	2727.94
727.31	2729.69
727.501	2697.53
727.691	2721.74
727.882	2743.83
728.072	2791.88
728.263	2798.08
728.453	2858.34
728.644	2883.33
728.834	2822.49
729.024	2804.86
729.215	2807.38
729.405	2869.19
729.596	2946.3
729.786	2987.57
729.976	2946.1
730.167	3025.54
730.357	2974.78
730.547	2974.59
730.737	3062.55
730.928	3081.34
731.118	3153.8
731.308	3068.16
731.498	3099.16
731.688	3194.1
731.879	3223.16
732.069	3289.62
732.259	3360.14
732.449	3328.17
732.639	3450.04
732.829	3474.26
733.019	3535.87
733.209	3604.07
733.399	3618.02
733.589	3702.69
733.779	3745.51
733.969	3777.28
734.159	3827.07
734.349	3880.93
734.539	3933.44
734.729	3950.3
734.919	3965.02
735.109	4038.84
735.299	3956.5
735.488	3987.11
735.678	3957.08
735.868	3991.18
736.058	4003.58
736.248	3977.42
736.437	3977.03
736.627	3978.78
736.817	4061.31
737.007	4037.87
737.196	4117.11
737.386	4085.92
737.576	4073.71
737.765	4157.99
737.955	4064.8
738.144	4220.19
738.334	4237.62
738.524	4146.76
738.713	4230.26
738.903	4214.76
739.092	4214.37
739.282	4271.34
739.471	4275.99
739.661	4276.37
739.85	4367.43
740.04	4339.73
740.229	4373.83
740.419	4412.58
740.608	4419.55
740.797	4371.7
740.987	4481.94
741.176	4456.17
741.365	4465.47
741.555	4369.18
741.744	4484.65
741.933	4404.44
742.123	4494.73
742.312	4488.33
742.501	4548.98
742.69	4624.15
742.88	4525.53
743.069	4640.62
743.258	4582.3
743.447	4623.96
743.636	4678.59
743.825	4604.58
744.014	4620.08
744.204	4659.8
744.393	4604.77
744.582	4724.12
744.771	4770.82
744.96	4686.92
745.149	4710.37
745.338	4676.85
745.527	4783.6
745.716	4712.3
745.905	4660.19
746.094	4765.2
746.283	4720.05
746.471	4721.41
746.66	4800.65
746.849	4794.07
747.038	4814.21
747.227	4752.02
747.416	4752.22
747.604	4732.07
747.793	4741.75
747.982	4716.37
748.171	4828.94
748.359	4796.2
748.548	4765.97
748.737	4765.97
748.926	4801.62
749.114	4690.6
749.303	4762.48
749.491	4769.85
749.68	4681.5
749.869	4777.02
750.057	4751.44
750.246	4731.1
750.434	4736.33
750.623	4754.54
750.811	4719.47
751	4747.18
751.188	4688.09
751.377	4735.36
751.565	4703.78
751.754	4731.68
751.942	4671.81
752.131	4735.75
752.319	4658.05
752.507	4631.12
752.696	4727.42
752.884	4751.25
753.072	4662.32
753.261	4753.18
753.449	4678.2
753.637	4675.88
753.825	4749.31
754.014	4743.5
754.202	4661.74
754.39	4792.9
754.578	4766.17
754.766	4690.99
754.955	4662.7
755.143	4743.69
755.331	4655.54
755.519	4685.18
755.707	4670.45
755.895	4677.24
756.083	4649.53
756.271	4592.76
756.459	4655.34
756.647	4667.74
756.835	4598.57
757.023	4567.96
757.211	4583.46
757.399	4589.27
757.587	4576.49
757.775	4494.92
757.963	4579.78
758.151	4561.37
758.339	4484.65
758.526	4443.58
758.714	4490.85
758.902	4377.31
759.09	4173.3
759.278	3976.06
759.465	3637.2
759.653	3151.86
759.841	2862.79
760.028	2475.69
760.216	2163.75
760.404	1966.71
760.591	1641.6
760.779	1400.78
760.967	1210.9
761.154	1013.09
761.342	1066.95
761.529	1046.22
761.717	1116.74
761.905	1133.99
762.092	1243.65
762.28	1125.66
762.467	1108.02
762.655	1028.98
762.842	1060.94
763.029	1061.72
763.217	1070.82
763.404	1073.54
763.592	1115.58
763.779	1062.49
763.966	1124.49
764.154	1182.81
764.341	1227.18
764.528	1289.37
764.716	1331.61
764.903	1425.58
765.09	1497.84
765.277	1591.42
765.465	1784.98
765.652	1842.13
765.839	1994.61
766.026	2149.03
766.213	2200.37
766.4	2341.23
766.588	2549.7
766.775	2615.96
766.962	2754.29
767.149	2898.25
767.336	3060.42
767.523	3059.06
767.71	3244.09
767.897	3339.22
768.084	3464.38
768.271	3546.91
768.458	3581.6
768.645	3686.02
768.832	3728.07
769.019	3697.46
769.206	3801.69
769.392	3825.91
769.579	3961.53
769.766	3894.88
769.953	3911.16
770.14	3989.82
770.327	3997.96
770.513	4067.71
770.7	4050.08
770.887	4008.42
771.073	4053.95
771.26	4123.51
771.447	4078.75
771.634	4047.17
771.82	4157.99
772.007	4058.41
772.193	4086.11
772.38	4120.79
772.567	4082.04
772.753	4086.89
772.94	4104.91
773.126	4105.1
773.313	4104.91
773.499	4125.83
773.686	4120.79
773.872	4035.16
774.059	4068.68
774.245	4018.69
774.432	4078.36
774.618	4029.54
774.804	4031.67
774.991	4027.21
775.177	4036.32
775.363	3989.05
775.55	4069.64
775.736	3975.87
775.922	4024.5
776.109	4022.76
776.295	3996.02
776.481	4049.69
776.667	4055.89
776.853	4007.84
777.04	3927.63
777.226	3959.21
777.412	3999.12
777.598	3942.74
777.784	3988.66
777.97	3929.18
778.156	3992.15
778.342	3947.97
778.528	3907.67
778.715	3890.43
778.901	3871.63
779.087	3907.87
779.272	3889.46
779.458	3865.63
779.644	3878.22
779.83	3893.92
780.016	3953.01
780.202	3907.09
780.388	3870.67
780.574	3813.7
780.76	3765.46
780.946	3841.41
781.131	3819.13
781.317	3780.57
781.503	3770.11
781.689	3814.48
781.874	3891.98
782.06	3764.3
782.246	3821.65
782.432	3776.12
782.617	3777.86
782.803	3798.79
782.989	3709.47
783.174	3714.7
783.36	3679.05
783.545	3672.08
783.731	3712.37
783.916	3596.9
784.102	3698.42
784.288	3667.04
784.473	3680.79
784.659	3653.09
784.844	3696.49
785.029	3611.24
785.215	3626.16
785.4	3563
785.586	3649.02
785.771	3542.07
785.956	3629.45
786.142	3582.37
786.327	3582.56
786.512	3551.37
786.698	3556.8
786.883	3451.78
787.068	3541.3
787.254	3482.01
787.439	3461.47
787.624	3456.24
787.809	3499.06
787.994	3451.01
788.18	3542.07
788.365	3378.94
788.55	3445.78
788.735	3454.88
788.92	3413.81
789.105	3386.1
789.29	3390.37
789.475	3310.54
789.66	3363.63
789.845	3277.8
790.03	3305.12
790.215	3392.89
790.4	3352.78
790.585	3386.1
790.77	3274.31
790.955	3268.31
791.14	3281.29
791.325	3346.77
791.51	3235.18
791.695	3292.72
791.879	3311.9
792.064	3222
792.249	3354.72
792.434	3254.55
792.618	3231.49
792.803	3342.51
792.988	3250.67
793.173	3276.64
793.357	3281.87
793.542	3243.89
793.727	3287.87
793.911	3325.66
794.096	3282.84
794.281	3356.65
794.465	3365.18
794.65	3292.14
794.834	3370.02
795.019	3346.39
795.203	3381.07
795.388	3413.42
795.572	3381.45
795.757	3356.65
795.941	3374.29
796.126	3351.42
796.31	3248.35
796.494	3292.14
796.679	3315.58
796.863	3277.99
797.048	3395.6
797.232	3304.34
797.416	3327.21
797.601	3322.17
797.785	3397.54
797.969	3385.14
798.153	3354.33
798.338	3380.29
798.522	3427.37
798.706	3386.3
798.89	3411.68
799.074	3484.53
799.258	3431.44
799.443	3393.66
799.627	3383
799.811	3461.08
799.995	3384.36
800.179	3345.03
800.363	3306.28
800.547	3411.87
800.731	3444.23
800.915	3291.17
801.099	3308.8
801.283	3323.52
801.467	3370.02
801.651	3298.92
801.835	3408.19
802.019	3369.05
802.202	3370.02
802.386	3287.29
802.57	3263.46
802.754	3293.49
802.938	3326.24
803.121	3332.63
803.305	3361.3
803.489	3362.08
803.673	3339.8
803.856	3309.38
804.04	3289.81
804.224	3375.84
804.407	3343.87
804.591	3308.02
804.775	3329.34
804.958	3321.59
805.142	3337.09
805.326	3340.77
805.509	3369.05
805.693	3400.44
805.876	3392.3
806.06	3331.08
806.243	3367.12
806.427	3411.1
806.61	3431.05
806.794	3370.99
806.977	3410.13
807.16	3418.65
807.344	3429.7
807.527	3341.15
807.71	3407.8
807.894	3331.27
808.077	3380.68
808.26	3320.81
808.444	3308.41
808.627	3394.44
808.81	3288.26
808.993	3218.71
809.177	3275.09
809.36	3228.39
809.543	3266.37
809.726	3111.76
809.909	3161.94
810.092	3167.75
810.276	3149.93
810.459	3133.85
810.642	3141.4
810.825	3089.48
811.008	3102.07
811.191	2999.58
811.374	3023.41
811.557	2998.8
811.74	3059.64
811.923	2958.5
812.106	2970.13
812.289	2867.64
812.472	2908.9
812.654	2893.21
812.837	2856.98
813.02	2770.76
813.203	2735.31
813.386	2614.99
813.569	2601.62
813.751	2561.52
813.934	2606.85
814.117	2527.8
814.3	2490.22
814.482	2433.64
814.665	2369.51
814.848	2333.86
815.03	2321.46
815.213	2284.65
815.396	2257.72
815.578	2225.17
815.761	2187.78
815.943	2236.41
816.126	2157.17
816.309	2144.18
816.491	2006.82
816.674	1984.92
816.856	2050.41
817.039	2045.37
817.221	2117.06
817.403	2058.16
817.586	2057
817.768	2104.66
817.951	2009.14
818.133	1986.47
818.315	1985.89
818.498	2031.62
818.68	2124.42
818.862	2098.85
819.045	2148.45
819.227	2088.58
819.409	2071.72
819.591	2099.24
819.774	2093.62
819.956	2038.59
820.138	2173.63
820.32	2140.31
820.502	2260.43
820.684	2308.87
820.866	2312.94
821.048	2387.14
821.231	2393.54
821.413	2366.41
821.595	2348.98
821.777	2370.67
821.959	2390.63
822.141	2355.56
822.323	2253.46
822.505	2164.53
822.686	2093.62
822.868	1984.92
823.05	1851.24
823.232	1815.59
823.414	1766.57
823.596	1839.03
823.778	1866.54
823.96	1880.3
824.141	1921.18
824.323	1920.21
824.505	2026.39
824.687	2089.74
824.868	2153.87
825.05	2219.94
825.232	2283.68
825.413	2329.99
825.595	2293.37
825.777	2220.71
825.958	2283.29
826.14	2285.04
826.321	2339.48
826.503	2296.47
826.685	2306.74
826.866	2369.51
827.048	2345.29
827.229	2268.96
827.411	2189.13
827.592	2171.31
827.773	2171.7
827.955	2088.77
828.136	2083.93
828.318	2087.22
828.499	2085.48
828.68	2018.44
828.862	2055.64
829.043	2124.03
829.224	2030.65
829.406	2036.85
829.587	2059.32
829.768	2045.37
829.949	2082.96
830.131	2098.07
830.312	2137.6
830.493	2084.7
830.674	2077.73
830.855	2030.26
831.036	2039.37
831.218	2132.56
831.399	2165.11
831.58	2116.48
831.761	2075.02
831.942	2082.77
832.123	2058.94
832.304	2013.41
832.485	2091.87
832.666	2061.07
832.847	2105.05
833.028	2103.5
833.209	2058.55
833.389	2042.27
833.57	2022.32
833.751	2011.86
833.932	2119.58
834.113	2062.23
834.294	2059.9
834.475	2104.27
834.655	2147.28
834.836	2112.99
835.017	2151.74
835.198	2066.3
835.378	2112.99
835.559	2156
835.74	2145.35
835.92	2101.56
836.101	2109.7
836.281	2193.59
836.462	2147.67
836.643	2182.93
836.823	2181.77
837.004	2178.87
837.184	2237.96
837.365	2215.68
837.545	2218.97
837.726	2144.96
837.906	2232.92
838.087	2178.09
838.267	2180.8
838.448	2160.85
838.628	2127.91
838.808	2178.48
838.989	2212
839.169	2122.68
839.349	2204.05
839.53	2186.62
839.71	2187.78
839.89	2127.91
840.07	2243.38
840.251	2160.46
840.431	2235.05
840.611	2180.8
840.791	2166.66
840.971	2224.78
841.151	2137.79
841.332	2136.05
841.512	2217.42
841.692	2082.38
841.872	2157.75
842.052	2153.48
842.232	2198.82
842.412	2095.94
842.592	2136.82
842.772	2124.62
842.952	2170.73
843.132	2138.37
843.312	2111.05
843.492	2095.75
843.672	2157.17
843.851	2050.8
844.031	2114.73
844.211	2075.6
844.391	2087.61
844.571	2127.13
844.751	2147.87
844.93	2144.57
845.11	2086.25
845.29	2137.4
845.47	2145.54
845.649	2100.59
845.829	2128.88
846.009	2085.87
846.188	2113.57
846.368	2057.77
846.547	2087.42
846.727	2117.45
846.907	2075.79
847.086	2099.82
847.266	2127.72
847.445	2112.8
847.625	2050.8
847.804	2062.04
847.984	2095.94
848.163	2069.79
848.343	2045.57
848.522	2033.17
848.701	2081.41
848.881	2003.72
849.06	2082.19
849.239	2018.83
849.419	2073.66
849.598	1957.99
849.777	1955.67
849.957	1966.13
850.136	1867.51
850.315	1844.26
850.494	1879.72
850.674	1887.86
850.853	1942.69
851.032	1917.69
851.211	1959.74
851.39	1926.8
851.569	1896.19
851.748	1880.69
851.927	1941.52
852.107	1939.39
852.286	1878.36
852.465	1858.41
852.644	1937.84
852.823	1923.12
853.002	1908.2
853.181	1895.03
853.359	1908.59
853.538	1821.01
853.717	1902.58
853.896	1799.7
854.075	1688.88
854.254	1707.48
854.433	1585.61
854.611	1665.24
854.79	1594.52
854.969	1668.53
855.148	1681.13
855.327	1654.59
855.505	1716.39
855.684	1729.37
855.863	1734.02
856.041	1753.2
856.22	1761.15
856.399	1753.98
856.577	1837.48
856.756	1831.86
856.934	1941.14
857.113	1941.52
857.291	1845.81
857.47	1796.8
857.648	1828.38
857.827	1834
858.005	1865.38
858.184	1807.45
858.362	1903.55
858.541	1844.07
858.719	1843.1
858.898	1816.17
859.076	1822.76
859.254	1860.73
859.433	1805.9
859.611	1802.03
859.789	1742.55
859.967	1834
860.146	1819.66
860.324	1760.56
860.502	1781.1
860.68	1717.17
860.859	1756.11
861.037	1734.99
861.215	1796.8
861.393	1796.21
861.571	1753.78
861.749	1710.58
861.927	1777.03
862.105	1719.68
862.283	1755.91
862.461	1734.8
862.639	1680.16
862.817	1721.82
862.995	1743.32
863.173	1714.84
863.351	1710.97
863.529	1743.13
863.707	1754.17
863.885	1758.24
864.063	1651.29
864.241	1706.32
864.418	1736.54
864.596	1677.64
864.774	1676.87
864.952	1691.01
865.129	1707.87
865.307	1671.83
865.485	1597.82
865.663	1687.72
865.84	1566.04
866.018	1586.77
866.196	1477.5
866.373	1482.15
866.551	1471.3
866.728	1398.45
866.906	1450.38
867.084	1458.32
867.261	1503.46
867.439	1545.51
867.616	1559.84
867.794	1530.2
867.971	1544.54
868.149	1547.06
868.326	1628.24
868.503	1589.87
868.681	1614.29
868.858	1568.76
869.035	1554.61
869.213	1599.95
869.39	1549.38
869.567	1641.41
869.745	1564.69
869.922	1551.71
870.099	1600.53
870.276	1607.5
870.454	1558.1
870.631	1579.8
870.808	1554.61
870.985	1619.52
871.162	1639.09
871.339	1556.36
871.517	1520.9
871.694	1524
871.871	1576.89
872.048	1548.8
872.225	1513.15
872.402	1571.66
872.579	1502.88
872.756	1548.99
872.933	1499.2
873.11	1502.3
873.287	1528.65
873.463	1483.31
873.64	1456.19
873.817	1498.04
873.994	1490.48
874.171	1466.84
874.348	1471.88
874.524	1468.78
874.701	1481.18
874.878	1427.32
875.055	1465.1
875.231	1447.08
875.408	1445.92
875.585	1403.49
875.762	1466.26
875.938	1432.94
876.115	1391.09
876.291	1425.38
876.468	1428.48
876.645	1391.28
876.821	1426.74
876.998	1404.46
877.174	1432.74
877.351	1403.49
877.527	1370.16
877.704	1401.94
877.88	1392.45
878.057	1359.12
878.233	1409.88
878.409	1375.59
878.586	1388.76
878.762	1377.91
878.938	1400.97
879.115	1300.8
879.291	1387.99
879.467	1342.65
879.644	1346.72
879.82	1375.01
879.996	1333.35
880.172	1294.41
880.349	1351.37
880.525	1349.43
880.701	1261.86
880.877	1311.27
881.053	1325.6
881.229	1318.63
881.405	1380.43
881.581	1301.38
881.757	1300.22
881.933	1325.8
882.109	1333.16
882.285	1338.58
882.461	1303.32
882.637	1333.55
882.813	1278.91
882.989	1314.37
883.165	1379.08
883.341	1278.52
883.517	1347.11
883.693	1323.08
883.869	1368.61
884.044	1315.92
884.22	1332.96
884.396	1357.57
884.572	1384.11
884.747	1367.65
884.923	1352.53
885.099	1365.32
885.275	1349.05
885.45	1270.38
885.626	1286.66
885.801	1279.49
885.977	1297.7
886.153	1279.49
886.328	1321.34
886.504	1285.69
886.679	1311.27
886.855	1293.25
887.03	1294.02
887.206	1327.54
887.381	1333.93
887.557	1320.37
887.732	1332
887.908	1323.08
888.083	1339.75
888.258	1306.42
888.434	1302.35
888.609	1290.92
888.784	1368.23
888.96	1308.36
889.135	1289.95
889.31	1291.5
889.485	1331.03
889.661	1303.71
889.836	1322.31
890.011	1328.51
890.186	1312.82
890.361	1303.13
890.537	1312.43
890.712	1328.12
890.887	1308.36
891.062	1320.95
891.237	1381.01
891.412	1298.09
891.587	1322.7
891.762	1308.94
891.937	1337.61
892.112	1270.58
892.287	1250.23
892.462	1239.58
892.637	1211.1
892.812	1195.21
892.987	1226.99
893.161	1173.7
893.336	1165.76
893.511	1146.77
893.686	1212.26
893.861	1175.45
894.035	1199.09
894.21	1185.52
894.385	1145.22
894.56	1144.84
894.734	1083.61
894.909	1097.37
895.084	1100.27
895.258	1086.71
895.433	1051.06
895.608	1030.33
895.782	956.32
895.957	997.98
896.131	989.45
896.306	943.92
896.48	948.76
896.655	935.4
896.829	874.37
897.004	866.62
897.178	910.6
897.353	874.17
897.527	907.69
897.701	891.61
897.876	846.66
898.05	935.01
898.224	896.65
898.399	924.16
898.573	882.31
898.747	780.98
898.921	789.31
899.096	691.27
899.27	715.1
899.444	710.84
899.618	779.43
899.792	797.45
899.967	814.69
900.141	802.1
900.315	725.76
900.489	765.48
900.663	777.49
900.837	760.64
901.011	704.45
901.185	820.12
901.359	783.5
901.533	778.07
901.707	779.24
901.881	774.78
902.055	723.82
902.229	748.62
902.403	799.38
902.576	791.05
902.75	786.99
902.924	897.03
903.098	838.91
903.272	888.31
903.446	918.93
903.619	911.56
903.793	995.84
903.967	944.5
904.14	981.51
904.314	1005.92
904.488	948.38
904.661	983.44
904.835	979.38
905.009	986.93
905.182	1031.88
905.356	990.81
905.529	991
905.703	937.91
905.876	916.8
906.05	899.36
906.223	891.41
906.397	808.49
906.57	771.1
906.744	778.07
906.917	800.35
907.09	769.74
907.264	748.43
907.437	733.7
907.61	697.28
907.784	725.76
907.957	713.94
908.13	695.92
908.304	738.94
908.477	691.66
908.65	693.02
908.823	687.98
908.996	743.59
909.17	679.84
909.343	677.13
909.516	699.22
909.689	685.46
909.862	668.61
910.035	672.29
910.208	635.67
910.381	638.96
910.554	767.42
910.727	666.86
910.9	666.67
911.073	674.03
911.246	718.4
911.419	731.19
911.592	712.78
911.765	642.84
911.938	653.49
912.11	671.51
912.283	671.32
912.456	702.32
912.629	687.21
912.802	616.88
912.974	583.55
913.147	557.59
913.32	498.88
913.493	565.92
913.665	582.78
913.838	569.79
914.01	578.32
914.183	632.96
914.356	619.01
914.528	625.98
914.701	665.89
914.873	656.79
915.046	614.55
915.218	540.34
915.391	484.74
915.563	492.1
915.736	558.94
915.908	625.98
916.081	593.04
916.253	581.23
916.425	589.17
916.598	613.19
916.77	600.02
916.942	544.22
917.115	520.2
917.287	565.92
917.459	528.14
917.632	503.73
917.804	474.66
917.976	539.18
918.148	566.89
918.32	559.53
918.493	590.14
918.665	624.04
918.837	621.33
919.009	678.87
919.181	685.46
919.353	637.8
919.525	630.82
919.697	632.96
919.869	606.99
920.041	690.69
920.213	763.74
920.385	710.65
920.557	686.43
920.729	651.75
920.901	650.97
921.073	644.39
921.244	624.04
921.416	675.97
921.588	627.53
921.76	604.28
921.932	691.66
922.103	598.28
922.275	642.26
922.447	644.97
922.619	578.71
922.79	605.64
922.962	596.92
923.134	616.29
923.305	566.89
923.477	541.51
923.648	537.63
923.82	557.78
923.991	522.91
924.163	508.57
924.335	539.38
924.506	540.93
924.677	587.04
924.849	538.02
925.02	586.84
925.192	569.02
925.363	535.31
925.535	533.18
925.706	522.52
925.877	584.52
926.049	545.96
926.22	546.93
926.391	543.06
926.562	570.96
926.734	530.85
926.905	573.86
927.076	501.01
927.247	506.44
927.419	473.5
927.59	463.62
927.761	440.95
927.932	422.74
928.103	441.92
928.274	409.37
928.445	363.65
928.616	388.45
928.787	405.88
928.958	405.11
929.129	402.98
929.3	364.03
929.471	327.42
929.642	285.57
929.813	228.61
929.984	340.59
930.155	196.44
930.326	309.01
930.496	248.17
930.667	205.94
930.838	253.99
931.009	203.81
931.18	198.77
931.35	212.91
931.521	214.66
931.692	144.91
931.863	118.94
932.033	160.21
932.204	148.59
932.374	158.86
932.545	128.63
932.716	159.24
932.886	139.68
933.057	72.45
933.227	81.55
933.398	147.62
933.568	88.91
933.739	61.21
933.909	24.4
934.08	112.94
934.25	30.4
934.421	76.51
934.591	87.95
934.761	58.69
934.932	36.21
935.102	103.06
935.272	46.1
935.443	68.18
935.613	28.46
935.783	54.81
935.953	48.23
936.123	200.71
936.294	22.65
936.464	43.96
936.634	48.23
936.804	37.96
936.974	41.64
937.144	67.21
937.314	55.59
937.484	42.41
937.655	16.26
937.825	98.79
937.995	36.6
938.165	84.26
938.334	68.76
938.504	81.75
938.674	65.86
938.844	127.86
939.014	170.68
939.184	176.49
939.354	202.45
939.524	190.05
939.694	140.84
939.863	129.99
940.033	183.66
940.203	213.11
940.373	146.26
940.542	160.21
940.712	164.67
940.882	175.91
941.051	200.12
941.221	139.87
941.391	175.33
941.56	119.91
941.73	110.81
941.899	228.41
942.069	104.41
942.238	169.13
942.408	111.39
942.577	147.43
942.747	112.16
942.916	86.59
943.086	87.36
943.255	139.48
943.425	111.58
943.594	85.23
943.763	23.81
943.933	71.09
944.102	28.66
944.271	93.56
944.441	148.01
944.61	90.08
944.779	114.29
944.948	191.02
945.117	77.68
945.287	65.86
945.456	43.38
945.625	69.35
945.794	81.75
945.963	45.51
946.132	125.92
946.301	58.11
946.47	125.14
946.639	65.08
946.808	81.36
946.977	114.1
947.146	109.84
947.315	100.54
947.484	92.4
947.653	76.9
947.822	73.22
947.991	65.86
948.16	157.5
948.329	133.48
948.498	102.86
948.666	117.78
948.835	142.19
949.004	36.02
949.173	75.93
949.341	99.38
949.51	102.67
949.679	136.19
949.847	105.77
950.016	172.81
950.185	142.39
950.353	94.92
950.522	77.87
950.69	156.73
950.859	89.3
951.028	139.68
951.196	100.73
951.365	99.96
951.533	82.71
951.701	107.9
951.87	109.64
952.038	39.31
952.207	85.43
952.375	141.61
952.543	75.35
952.712	108.68
952.88	77.1
953.048	148.2
953.217	91.43
953.385	117.59
953.553	143.94
953.721	48.03
953.89	128.63
954.058	72.45
954.226	47.26
954.394	122.04
954.562	50.55
954.73	76.9
954.898	76.13
955.067	126.11
955.235	74.77
955.403	138.9
955.571	128.63
955.739	144.13
955.907	63.15
956.075	85.04
956.243	82.91
956.41	117.39
956.578	66.83
956.746	80.58
956.914	86.59
957.082	117.98
957.25	125.92
957.418	90.66
957.585	106.74
957.753	168.35
957.921	80.2
958.089	109.26
958.256	130.38
958.424	139.68
958.592	102.09
958.759	68.57
958.927	98.99
959.095	69.73
959.262	81.55
959.43	101.51
959.597	89.3
959.765	113.71
959.932	75.16
960.1	151.49
960.267	90.66
960.435	84.07
960.602	148.98
960.77	122.04
960.937	101.12
961.104	117.2
961.272	70.9
961.439	85.81
961.606	107.71
961.774	124.18
961.941	69.35
962.108	124.18
962.275	122.24
962.443	149.36
962.61	161.18
962.777	218.34
962.944	128.83
963.111	155.18
963.278	127.28
963.446	141.81
963.613	137.16
963.78	140.84
963.947	145.88
964.114	115.46
964.281	185.4
964.448	146.84
964.615	129.02
964.782	146.46
964.949	120.88
965.116	151.69
965.282	179.59
965.449	138.13
965.616	120.69
965.783	162.15
965.95	128.63
966.117	98.99
966.283	116.04
966.45	130.57
966.617	156.92
966.784	174.94
966.95	141.42
967.117	173
967.284	128.44
967.45	135.22
967.617	195.47
967.784	133.28
967.95	191.79
968.117	153.63
968.283	212.33
968.45	248.95
968.616	181.33
968.783	214.85
968.949	185.01
969.116	205.16
969.282	156.92
969.449	190.63
969.615	185.01
969.781	129.02
969.948	145.68
970.114	123.98
970.28	214.85
970.447	185.59
970.613	217.76
970.779	162.15
970.945	190.24
971.112	197.61
971.278	153.43
971.444	160.21
971.61	191.02
971.776	126.69
971.942	192.18
972.108	199.35
972.275	164.86
972.441	180.36
972.607	223.18
972.773	135.03
972.939	194.7
973.105	155.56
973.271	110.03
973.437	118.94
973.602	150.33
973.768	166.8
973.934	135.41
974.1	158.47
974.266	99.96
974.432	161.96
974.598	151.88
974.763	150.72
974.929	109.84
975.095	189.66
975.261	131.73
975.426	105.77
975.592	154.79
975.758	202.84
975.923	98.21
976.089	112.16
976.255	140.45
976.42	161.18
976.586	143.74
976.751	146.65
976.917	216.01
977.082	157.5
977.248	109.06
977.413	105.58
977.579	123.79
977.744	156.92
977.91	102.48
978.075	115.26
978.24	163.89
978.406	145.29
978.571	98.6
978.736	103.64
978.902	134.06
979.067	106.35
979.232	77.87
979.397	127.66
979.563	185.01
979.728	88.72
979.893	115.07
980.058	128.44
980.223	144.33
980.388	149.17
980.554	136.19
980.719	126.89
980.884	148.39
981.049	171.26
981.214	116.23
981.379	145.88
981.544	143.36
981.709	133.28
981.874	113.13
982.039	118.36
982.204	146.84
982.368	132.7
982.533	118.17
982.698	154.59
982.863	169.13
983.028	129.6
983.193	139.48
983.357	136.77
983.522	152.85
983.687	134.06
983.852	116.04
984.016	125.53
984.181	142.19
984.346	161.96
984.51	146.46
984.675	115.65
984.839	181.53
985.004	147.43
985.168	173.19
985.333	167.38
985.498	122.63
985.662	162.54
985.827	136.38
985.991	170.68
986.155	129.21
986.32	168.16
986.484	197.99
986.649	153.24
986.813	91.43
986.977	135.03
987.142	145.68
987.306	78.65
987.47	126.5
987.634	126.11
987.799	151.88
987.963	164.48
988.127	162.73
988.291	192.37
988.455	154.4
988.62	119.53
988.784	166.8
988.948	167.96
989.112	130.18
989.276	132.7
989.44	127.08
989.604	111.58
989.768	110.42
989.932	209.23
990.096	104.41
990.26	87.56
990.424	84.85
990.588	109.06
990.752	198.96
990.915	139.48
991.079	91.43
991.243	107.51
991.407	160.41
991.571	138.71
991.734	130.76
991.898	157.5
992.062	212.33
992.226	106.35
992.389	84.07
992.553	76.32
992.717	104.41
992.88	96.08
993.044	116.81
993.207	91.82
993.371	149.75
993.535	144.91
993.698	89.69
993.862	153.82
994.025	124.37
994.189	142.19
994.352	123.4
994.515	120.49
994.679	152.85
994.842	102.28
995.006	163.12
995.169	77.1
995.332	88.33
995.496	139.29
995.659	35.25
995.822	115.46
995.985	137.74
996.149	159.63
996.312	101.12
996.475	171.26
996.638	85.81
996.801	154.4
996.964	162.93
997.128	108.29
997.291	124.18
997.454	119.91
997.617	69.73
997.78	141.61
997.943	86.2
998.106	145.29
998.269	92.01
998.432	126.11
998.595	108.09
998.758	67.21
998.92	71.28
999.083	45.9
999.246	89.11
999.409	50.36
999.572	37.18
999.735	87.17
999.897	90.66
1000.06	90.85
1000.223	76.51
1000.386	104.41
1000.548	104.03
1000.711	106.16
1000.874	101.12
1001.036	20.13
1001.199	132.31
1001.361	59.27
1001.524	85.23
1001.687	85.62
1001.849	79.42
1002.012	107.32
1002.174	94.15
1002.337	127.86
1002.499	68.38
1002.661	123.4
1002.824	44.35
1002.986	83.68
1003.149	76.9
1003.311	41.83
1003.473	141.03
1003.636	61.01
1003.798	83.88
1003.96	101.7
1004.123	72.06
1004.285	54.81
1004.447	62.18
1004.609	74.58
1004.771	126.11
1004.933	46.87
1005.096	61.6
1005.258	59.46
1005.42	46.87
1005.582	123.98
1005.744	72.06
1005.906	39.9
1006.068	77.68
1006.23	29.63
1006.392	1.73
1006.554	31.56
1006.716	102.28
1006.878	107.51
1007.04	37.57
1007.202	57.72
1007.363	69.93
1007.525	76.9
1007.687	74.19
1007.849	103.44
1008.011	46.87
1008.172	31.18
1008.334	55.78
1008.496	93.95
1008.658	34.28
1008.819	44.16
1008.981	17.42
1009.143	40.67
1009.304	41.64
1009.466	84.46
1009.627	112.94
1009.789	143.16
1009.95	49.78
1010.112	37.18
1010.273	86.59
1010.435	37.18
1010.596	54.04
1010.758	49.97
1010.919	28.66
1011.081	20.33
1011.242	58.69
1011.403	69.93
1011.565	39.7
1011.726	78.26
1011.887	43
1012.049	51.71
1012.21	79.81
1012.371	99.18
1012.532	-10.67
1012.693	40.09
1012.855	43.58
1013.016	63.53
1013.177	66.83
1013.338	44.55
1013.499	105.19
1013.66	90.46
1013.821	52.3
1013.982	74.58
1014.143	42.41
1014.304	24.98
1014.465	79.42
1014.626	82.13
1014.787	44.35
1014.948	133.48
1015.109	-43.03
1015.27	81.16
1015.431	30.79
1015.592	29.82
1015.752	96.47
1015.913	70.9
1016.074	86.4
1016.235	47.84
1016.395	49.78
1016.556	33.89
1016.717	22.85
1016.877	89.69
1017.038	14.13
1017.199	59.27
1017.359	43.38
1017.52	68.57
1017.681	20.13
1017.841	45.9
1018.002	9.09
1018.162	28.85
1018.323	97.24
1018.483	44.35
1018.644	10.83
1018.804	-8.15
1018.964	8.51
1019.125	24.01
1019.285	49
1019.446	13.35
1019.606	10.45
1019.766	-18.81
1019.926	51.71
1020.087	56.36
1020.247	-4.08
1020.407	41.45
1020.567	66.25
1020.728	24.4
1020.888	-7.57
1021.048	23.43
1021.208	-3.5
1021.368	5.99
1021.528	79.23
1021.688	58.69
1021.848	42.8
1022.008	51.91
1022.168	46.29
1022.328	34.47
1022.488	63.34
1022.648	23.23
1022.808	39.7
1022.968	68.38
1023.128	14.32
1023.288	21.68
1023.448	25.95
1023.608	45.51
1023.767	34.47
1023.927	2.89
1024.087	-0.98
1024.247	12.19
1024.406	9.86
1024.566	12.58
1024.726	-4.28
1024.885	30.21
1025.045	49.58
1025.205	14.9
1025.364	3.86
1025.524	11.8
1025.683	8.9
1025.843	31.95
1026.003	22.65
1026.162	70.31
1026.321	64.5
1026.481	37.96
1026.64	3.47
1026.8	25.75
1026.959	33.11
1027.119	28.08
1027.278	15.87
1027.437	0.57
1027.597	44.16
1027.756	40.86
1027.915	12.38
1028.074	39.9
1028.234	-17.26
1028.393	33.11
1028.552	7.15
1028.711	-68.02
1028.87	58.11
1029.03	5.22
1029.189	-0.98
1029.348	-44
1029.507	13.93
1029.666	22.26
1029.825	-7.38
1029.984	-2.92
1030.143	35.44
1030.302	-11.64
1030.461	-49.03
1030.62	15.29
1030.779	38.54
1030.938	-1.18
1031.097	-4.08
1031.255	30.79
1031.414	56.75
1031.573	67.41
1031.732	-2.73
1031.891	8.31
1032.049	36.21
1032.208	51.52
1032.367	6.38
1032.525	10.45
1032.684	30.6
1032.843	32.34
1033.001	-11.45
1033.16	149.17
1033.319	43.58
1033.477	17.61
1033.636	7.73
1033.794	-36.05
1033.953	37.57
1034.111	57.33
1034.27	8.7
1034.428	18
1034.587	2.31
1034.745	37.96
1034.903	6.77
1035.062	13.35
1035.22	-46.32
1035.378	44.93
1035.537	-22.68
1035.695	31.76
1035.853	-14.35
1036.011	40.48
1036.17	24.78
1036.328	-52.33
1036.486	16.45
1036.644	6.18
1036.802	-48.45
1036.96	-12.03
1037.119	16.26
1037.277	8.31
1037.435	-36.63
1037.593	-21.72
1037.751	22.26
1037.909	21.88
1038.067	21.88
