Data from oakcork_FLMT105791__188__17-32-01-047.txt Node

Date: Mon Mar 20 17:32:01 GMT 2023
User: antho
Spectrometer: FLMT10579
Trigger mode: 0
Integration Time (sec): 1.000000E-1
Scans to average: 10
Electric dark correction enabled: true
Nonlinearity correction enabled: false
Boxcar width: 0
XAxis mode: Wavelengths
Number of Pixels in Spectrum: 3648
>>>>>Begin Spectral Data<<<<<
345.248	-129.33
345.464	-129.33
345.681	-129.33
345.898	-158.19
346.114	-159.55
346.331	-29.55
346.548	33.62
346.764	-2.42
346.981	-3.97
347.197	-20.44
347.414	-10.56
347.631	-44.27
347.847	59.38
348.064	17.34
348.28	28.77
348.497	-33.62
348.713	5.72
348.93	29.35
349.146	-1.07
349.363	8.04
349.579	1.84
349.796	-5.72
350.012	-13.85
350.229	20.44
350.445	16.76
350.661	-22.77
350.878	14.24
351.094	26.45
351.311	27.42
351.527	13.66
351.743	12.3
351.96	40.01
352.176	34
352.392	1.84
352.609	22.38
352.825	13.08
353.041	5.52
353.257	28.58
353.474	21.22
353.69	36.91
353.906	20.83
354.122	-5.91
354.339	53.76
354.555	4.17
354.771	3.58
354.987	49.89
355.203	64.23
355.42	-17.92
355.636	-6.3
355.852	1.45
356.068	28.77
356.284	-15.02
356.5	62.48
356.716	18.31
356.932	-14.63
357.148	17.73
357.364	12.11
357.58	32.84
357.796	33.81
358.012	65
358.228	18.5
358.444	-24.51
358.66	58.41
358.876	13.47
359.092	-12.69
359.308	13.47
359.524	15.21
359.74	16.57
359.956	4.55
360.172	29.93
360.388	34.39
360.604	-0.1
360.819	91.16
361.035	17.53
361.251	29.93
361.467	-16.76
361.683	39.04
361.898	26.06
362.114	46.4
362.33	30.32
362.546	63.26
362.762	12.11
362.977	7.65
363.193	-4.17
363.409	65.39
363.624	-10.95
363.84	-20.83
364.056	-5.52
364.271	20.25
364.487	32.65
364.703	-1.65
364.918	9.59
365.134	-1.26
365.35	21.99
365.565	105.3
365.781	34.58
365.996	45.82
366.212	84.57
366.427	40.01
366.643	-13.27
366.858	13.85
367.074	6.68
367.289	63.06
367.505	92.71
367.72	-24.7
367.936	1.07
368.151	52.41
368.367	32.45
368.582	44.85
368.798	-8.23
369.013	76.43
369.228	-2.42
369.444	25.09
369.659	75.66
369.874	20.63
370.09	69.26
370.305	-31.48
370.52	12.5
370.736	48.15
370.951	38.46
371.166	78.95
371.381	65.2
371.597	47.37
371.812	0.68
372.027	17.73
372.242	26.45
372.458	70.04
372.673	2.62
372.888	8.82
373.103	23.35
373.318	96.78
373.533	73.33
373.749	41.56
373.964	-22.57
374.179	66.55
374.394	0.68
374.609	89.61
374.824	-14.43
375.039	60.93
375.254	30.9
375.469	81.47
375.684	24.9
375.899	48.15
376.114	32.07
376.329	48.73
376.544	63.84
376.759	51.63
376.974	-2.42
377.189	35.17
377.404	4.17
377.619	62.87
377.834	-24.32
378.049	-31.87
378.264	0.48
378.478	64.61
378.693	6.88
378.908	45.82
379.123	3.58
379.338	57.06
379.553	39.43
379.767	43.11
379.982	72.95
380.197	66.75
380.412	2.62
380.626	41.95
380.841	107.82
381.056	58.22
381.271	74.11
381.485	5.91
381.7	19.28
381.915	35.94
382.129	17.15
382.344	27.61
382.559	21.41
382.773	41.75
382.988	-19.86
383.202	31.87
383.417	-9.78
383.632	111.5
383.846	31.87
384.061	22.57
384.275	16.76
384.49	28.19
384.704	64.61
384.919	54.35
385.133	45.05
385.348	62.68
385.562	10.37
385.777	74.5
385.991	19.28
386.206	-5.91
386.42	27.61
386.634	81.86
386.849	58.03
387.063	33.81
387.277	4.75
387.492	10.17
387.706	25.67
387.92	-1.65
388.135	66.16
388.349	27.8
388.563	42.14
388.778	26.45
388.992	47.37
389.206	56.67
389.42	103.17
389.635	46.79
389.849	79.15
390.063	62.68
390.277	32.26
390.491	72.36
390.706	59.58
390.92	85.54
391.134	32.84
391.348	30.32
391.562	17.34
391.776	10.75
391.99	-10.56
392.205	57.45
392.419	27.42
392.633	19.86
392.847	77.6
393.061	8.62
393.275	116.15
393.489	43.5
393.703	39.62
393.917	62.87
394.131	4.17
394.345	62.1
394.559	70.43
394.773	34.97
394.986	52.02
395.2	36.91
395.414	73.53
395.628	0.48
395.842	47.18
396.056	43.11
396.27	-14.43
396.484	32.45
396.697	48.53
396.911	75.66
397.125	52.99
397.339	67.52
397.553	57.64
397.766	96.97
397.98	67.13
398.194	82.83
398.408	29.74
398.621	78.37
398.835	81.47
399.049	60.74
399.262	94.26
399.476	93.87
399.69	58.03
399.903	142.69
400.117	70.62
400.331	87.09
400.544	30.32
400.758	163.62
400.971	70.23
401.185	107.63
401.398	6.1
401.612	110.92
401.826	104.14
402.039	70.43
402.253	33.03
402.466	92.32
402.68	66.16
402.893	85.93
403.106	59
403.32	57.25
403.533	81.86
403.747	62.29
403.96	63.84
404.174	90.19
404.387	52.6
404.6	56.09
404.814	99.88
405.027	40.2
405.24	49.89
405.454	47.95
405.667	96.58
405.88	22.57
406.094	81.86
406.307	97.94
406.52	90.19
406.733	39.04
406.947	43.69
407.16	116.73
407.373	115.38
407.586	58.61
407.799	32.84
408.012	91.35
408.226	67.91
408.439	96.97
408.652	73.53
408.865	90
409.078	103.36
409.291	79.34
409.504	21.6
409.717	104.14
409.93	87.48
410.143	78.95
410.357	43.11
410.57	30.32
410.783	50.08
410.996	81.86
411.209	73.33
411.421	107.82
411.634	62.29
411.847	41.95
412.06	72.36
412.273	83.02
412.486	82.63
412.699	158.39
412.912	42.92
413.125	109.37
413.338	86.31
413.55	105.3
413.763	76.05
413.976	75.46
414.189	63.26
414.402	66.16
414.615	158.78
414.827	46.4
415.04	108.98
415.253	105.5
415.466	136.88
415.678	147.93
415.891	83.21
416.104	111.11
416.316	77.98
416.529	63.45
416.742	108.21
416.954	122.55
417.167	87.48
417.38	70.04
417.592	121.77
417.805	63.06
418.017	46.01
418.23	82.83
418.442	71.59
418.655	80.89
418.868	84.18
419.08	127.2
419.293	112.28
419.505	81.08
419.718	102.78
419.93	107.05
420.142	64.81
420.355	125.65
420.567	118.67
420.78	103.95
420.992	91.16
421.205	167.3
421.417	72.95
421.629	97.94
421.842	57.25
422.054	47.76
422.266	120.41
422.479	121.58
422.691	68.88
422.903	124.87
423.115	68.49
423.328	87.48
423.54	89.22
423.752	88.83
423.964	68.1
424.177	113.44
424.389	75.08
424.601	189.97
424.813	139.01
425.025	140.56
425.238	116.15
425.45	72.75
425.662	95.23
425.874	390.3
426.086	102.2
426.298	123.71
426.51	108.79
426.722	101.81
426.934	94.84
427.146	116.93
427.358	65.2
427.57	131.07
427.782	109.18
427.994	111.11
428.206	97.16
428.418	55.9
428.63	113.83
428.842	122.55
429.054	117.12
429.266	131.46
429.478	80.11
429.69	111.11
429.902	36.91
430.114	94.06
430.325	106.46
430.537	78.37
430.749	97.16
430.961	50.86
431.173	96.97
431.384	127.78
431.596	25.67
431.808	85.15
432.02	118.67
432.231	131.46
432.443	176.6
432.655	101.23
432.867	74.11
433.078	153.93
433.29	185.9
433.502	146.57
433.713	149.86
433.925	129.13
434.136	179.12
434.348	74.11
434.56	47.56
434.771	211.09
434.983	68.49
435.194	114.99
435.406	114.6
435.617	142.69
435.829	189.78
436.04	128.16
436.252	150.25
436.463	186.09
436.675	170.21
436.886	159.94
437.098	148.31
437.309	190.55
437.521	143.28
437.732	165.94
437.943	133.01
438.155	141.73
438.366	112.86
438.578	189.19
438.789	135.53
439	163.23
439.211	137.66
439.423	157.81
439.634	166.72
439.845	163.43
440.057	134.75
440.268	179.51
440.479	116.54
440.69	156.45
440.902	156.64
441.113	134.94
441.324	104.72
441.535	176.21
441.746	187.64
441.957	119.06
442.168	162.26
442.38	169.82
442.591	183.77
442.802	135.53
443.013	137.46
443.224	179.7
443.435	147.54
443.646	157.61
443.857	158
444.068	139.59
444.279	131.65
444.49	217.87
444.701	176.41
444.912	261.85
445.123	199.46
445.334	158
445.545	188.23
445.756	169.82
445.967	141.14
446.178	193.07
446.388	197.53
446.599	199.85
446.81	204.89
447.021	152.58
447.232	209.93
447.443	240.54
447.653	145.02
447.864	222.13
448.075	203.73
448.286	233.17
448.496	178.15
448.707	235.69
448.918	177.38
449.129	243.44
449.339	161.1
449.55	195.98
449.761	193.46
449.971	236.86
450.182	173.89
450.393	205.86
450.603	204.69
450.814	246.54
451.024	195.78
451.235	242.67
451.446	246.54
451.656	259.91
451.867	183.19
452.077	225.42
452.288	255.84
452.498	258.17
452.709	195.98
452.919	236.47
453.13	177.96
453.34	262.43
453.55	152.19
453.761	251.97
453.971	226.01
454.182	252.94
454.392	206.05
454.602	255.84
454.813	228.14
455.023	249.06
455.233	187.45
455.444	224.07
455.654	168.85
455.864	226.2
456.075	223.1
456.285	217.09
456.495	238.41
456.705	240.34
456.916	279.09
457.126	289.56
457.336	214.96
457.546	170.79
457.756	202.56
457.967	258.94
458.177	193.84
458.387	249.84
458.597	204.5
458.807	218.84
459.017	243.83
459.227	213.41
459.437	236.66
459.647	266.89
459.857	270.18
460.068	214.38
460.278	249.84
460.488	256.42
460.698	314.74
460.908	228.33
461.117	210.51
461.327	164.78
461.537	253.71
461.747	245.19
461.957	244.22
462.167	320.94
462.377	262.04
462.587	253.52
462.797	263.21
463.007	240.54
463.216	269.02
463.426	311.64
463.636	265.53
463.846	216.9
464.056	227.75
464.265	280.64
464.475	194.62
464.685	240.34
464.895	286.26
465.104	245.77
465.314	259.91
465.524	263.59
465.733	224.07
465.943	300.21
466.153	302.34
466.362	303.12
466.572	278.9
466.782	257.78
466.991	263.59
467.201	310.67
467.41	211.86
467.62	248.09
467.829	265.34
468.039	292.07
468.249	277.93
468.458	263.59
468.668	294.59
468.877	272.31
469.086	318.23
469.296	308.93
469.505	257.78
469.715	346.32
469.924	284.13
470.134	312.03
470.343	289.75
470.552	285.49
470.762	265.34
470.971	268.05
471.18	302.15
471.39	287.81
471.599	249.45
471.808	307.96
472.018	262.04
472.227	340.12
472.436	310.67
472.645	295.95
472.855	261.07
473.064	321.33
473.273	297.69
473.482	329.08
473.691	348.65
473.901	326.17
474.11	315.9
474.319	387.59
474.528	310.29
474.737	365.31
474.946	376.16
475.155	324.04
475.364	375.19
475.573	330.82
475.783	350.59
475.992	359.5
476.201	367.64
476.41	327.34
476.619	302.34
476.828	392.05
477.037	301.76
477.245	352.72
477.454	389.34
477.663	359.69
477.872	319.78
478.081	387.2
478.29	325.98
478.499	439.13
478.708	385.07
478.917	423.63
479.125	387.4
479.334	368.6
479.543	339.15
479.752	392.24
479.961	384.49
480.169	418.4
480.378	361.24
480.587	490.28
480.796	418.4
481.004	390.11
481.213	436.03
481.422	401.35
481.63	406.77
481.839	430.02
482.048	481.17
482.256	434.09
482.465	414.91
482.674	467.03
482.882	430.02
483.091	518.76
483.299	428.28
483.508	451.33
483.716	432.15
483.925	469.74
484.134	427.31
484.342	434.09
484.551	499
484.759	461.99
484.967	471.48
485.176	468
485.384	468
485.593	485.24
485.801	435.83
486.01	433.51
486.218	436.61
486.426	370.15
486.635	412.2
486.843	416.27
487.051	461.02
487.26	417.43
487.468	441.07
487.676	468.77
487.885	445.13
488.093	454.43
488.301	480.98
488.509	471.1
488.717	481.56
488.926	478.85
489.134	479.04
489.342	487.18
489.55	446.1
489.758	455.6
489.967	477.49
490.175	561.19
490.383	486.98
490.591	535.81
490.799	488.34
491.007	548.4
491.215	513.72
491.423	479.82
491.631	504.23
491.839	514.3
492.047	523.02
492.255	472.26
492.463	482.91
492.671	504.23
492.879	546.46
493.087	508.3
493.295	515.27
493.503	542.98
493.711	552.66
493.919	573.59
494.127	578.24
494.334	574.36
494.542	512.56
494.75	539.68
494.958	562.55
495.166	570.49
495.374	540.85
495.581	558.09
495.789	559.45
495.997	584.63
496.205	551.31
496.412	558.86
496.62	567.78
496.828	561.96
497.035	571.84
497.243	585.99
497.451	581.73
497.658	568.94
497.866	553.83
498.074	624.54
498.281	526.7
498.489	649.54
498.696	573.78
498.904	562.55
499.112	576.3
499.319	651.48
499.527	605.75
499.734	632.1
499.942	557.12
500.149	596.84
500.357	607.69
500.564	549.37
500.771	601.88
500.979	577.46
501.186	561.58
501.394	589.09
501.601	584.44
501.808	607.11
502.016	563.32
502.223	599.16
502.43	578.04
502.638	618.15
502.845	583.86
503.052	668.33
503.26	587.34
503.467	692.94
503.674	625.71
503.881	626.68
504.089	682.09
504.296	667.94
504.503	577.85
504.71	632.68
504.917	574.94
505.125	630.36
505.332	601.29
505.539	635.78
505.746	694.1
505.953	676.08
506.16	652.83
506.367	718.9
506.574	722
506.781	699.72
506.988	631.52
507.195	660.77
507.402	650.31
507.609	693.13
507.816	668.14
508.023	674.72
508.23	623.38
508.437	665.42
508.644	690.03
508.851	730.72
509.058	719.48
509.265	703.4
509.472	720.64
509.679	819.26
509.885	698.56
510.092	724.52
510.299	682.86
510.506	705.92
510.713	738.86
510.92	738.47
511.126	756.87
511.333	771.02
511.54	762.69
511.746	802.4
511.953	792.91
512.16	797.37
512.367	762.49
512.573	765.2
512.78	748.15
512.987	748.93
513.193	767.34
513.4	712.89
513.606	753.39
513.813	761.52
514.02	754.35
514.226	819.65
514.433	808.41
514.639	722.19
514.846	783.42
515.052	737.31
515.259	772.57
515.465	787.1
515.672	761.52
515.878	837.67
516.085	799.5
516.291	846
516.497	797.95
516.704	775.86
516.91	723.74
517.117	720.06
517.323	715.61
517.529	737.31
517.736	728.97
517.942	769.47
518.148	766.56
518.354	784.19
518.561	792.72
518.767	800.08
518.973	812.09
519.179	845.8
519.386	819.65
519.592	792.14
519.798	793.49
520.004	871.96
520.21	841.73
520.417	915.55
520.623	900.05
520.829	915.55
521.035	922.72
521.241	852.39
521.447	903.73
521.653	1020.95
521.859	904.9
522.065	918.65
522.271	1005.84
522.477	981.43
522.683	1005.64
522.889	979.3
523.095	976
523.301	964.18
523.507	954.3
523.713	956.63
523.919	971.16
524.125	1024.63
524.331	1008.94
524.537	1055.44
524.742	1033.74
524.948	1048.08
525.154	1040.52
525.36	1176.92
525.566	1069.58
525.772	1119.76
525.977	1013.01
526.183	1066.09
526.389	1109.88
526.595	1030.06
526.8	1016.69
527.006	1004.1
527.212	961.86
527.417	953.33
527.623	1004.68
527.829	1030.64
528.034	1063.77
528.24	1051.95
528.446	1036.84
528.651	1112.59
528.857	1110.46
529.062	1145.14
529.268	1113.37
529.473	1125.19
529.679	1143.98
529.884	1208.69
530.09	1178.08
530.295	1183.89
530.501	1196.49
530.706	1171.69
530.912	1173.04
531.117	1196.1
531.323	1182.73
531.528	1220.9
531.733	1178.66
531.939	1155.99
532.144	1221.48
532.35	1214.12
532.555	1248.41
532.76	1213.54
532.966	1212.76
533.171	1192.61
533.376	1169.36
533.581	1153.67
533.787	1167.42
533.992	1225.55
534.197	1254.22
534.402	1191.84
534.607	1235.43
534.813	1313.12
535.018	1255.97
535.223	1219.15
535.428	1254.22
535.633	1313.12
535.838	1295.1
536.043	1276.89
536.249	1384.42
536.454	1246.86
536.659	1279.6
536.864	1262.17
537.069	1257.52
537.274	1322.23
537.479	1298.98
537.684	1318.93
537.889	1289.87
538.094	1371.05
538.299	1314.67
538.504	1350.71
538.708	1338.5
538.913	1343.73
539.118	1318.74
539.323	1369.31
539.528	1287.74
539.733	1313.9
539.938	1340.63
540.142	1321.07
540.347	1330.56
540.552	1296.27
540.757	1333.66
540.962	1310.99
541.166	1268.17
541.371	1273.02
541.576	1291.62
541.781	1237.56
541.985	1334.05
542.19	1326.1
542.395	1383.06
542.599	1396.82
542.804	1376.67
543.008	1365.05
543.213	1365.82
543.418	1297.62
543.622	1358.26
543.827	1307.5
544.031	1398.56
544.236	1397.4
544.44	1372.41
544.645	1451.07
544.849	1379
545.054	1387.71
545.258	1455.53
545.463	1432.66
545.667	1375.31
545.872	1381.51
546.076	1382.48
546.281	1401.47
546.485	1341.99
546.689	1380.55
546.894	1434.6
547.098	1396.82
547.302	1371.83
547.507	1406.7
547.711	1400.31
547.915	1428.21
548.119	1352.84
548.324	1366.01
548.528	1453.98
548.732	1391.01
548.936	1457.85
549.141	1434.21
549.345	1412.13
549.549	1414.45
549.753	1419.1
549.957	1469.48
550.161	1448.74
550.366	1435.96
550.57	1378.03
550.774	1427.63
550.978	1411.55
551.182	1415.03
551.386	1397.79
551.59	1379.58
551.794	1409.41
551.998	1443.71
552.202	1418.91
552.406	1402.44
552.61	1434.02
552.814	1430.34
553.018	1482.65
553.222	1402.83
553.426	1401.47
553.63	1480.13
553.833	1434.21
554.037	1370.47
554.241	1440.22
554.445	1456.49
554.649	1416.39
554.853	1408.25
555.056	1471.99
555.26	1429.18
555.464	1430.92
555.668	1445.84
555.871	1469.67
556.075	1464.05
556.279	1417.55
556.483	1386.55
556.686	1421.81
556.89	1435.96
557.094	1404.57
557.297	1363.3
557.501	1428.21
557.704	1355.55
557.908	1456.3
558.112	1407.86
558.315	1442.54
558.519	1408.06
558.722	1399.15
558.926	1375.31
559.129	1325.72
559.333	1301.3
559.536	1341.41
559.74	1313.9
559.943	1296.65
560.147	1328.43
560.35	1340.05
560.553	1343.54
560.757	1281.35
560.96	1408.25
561.164	1315.06
561.367	1416.39
561.57	1338.5
561.774	1348.38
561.977	1290.26
562.18	1342.38
562.384	1395.66
562.587	1340.44
562.79	1331.92
562.993	1324.17
563.197	1362.91
563.4	1361.36
563.603	1363.69
563.806	1372.99
564.009	1288.9
564.212	1359.43
564.416	1264.69
564.619	1342.38
564.822	1247.83
565.025	1382.87
565.228	1303.63
565.431	1299.95
565.634	1209.85
565.837	1279.99
566.04	1248.8
566.243	1233.69
566.446	1169.94
566.649	1262.75
566.852	1206.56
567.055	1232.33
567.258	1256.94
567.461	1285.8
567.664	1304.98
567.867	1182.15
568.07	1223.61
568.273	1228.26
568.475	1252.67
568.678	1230.59
568.881	1190.48
569.084	1214.7
569.287	1152.31
569.489	1127.9
569.692	1202.3
569.895	1214.5
570.098	1131.97
570.3	1117.82
570.503	1085.66
570.706	1110.66
570.909	1099.61
571.111	1077.14
571.314	1086.44
571.516	1104.65
571.719	1117.44
571.922	1060.28
572.124	1099.81
572.327	1087.99
572.529	1059.89
572.732	1054.66
572.935	1098.45
573.137	1131.77
573.34	1047.88
573.542	1100.77
573.745	1103.1
573.947	1082.37
574.15	1087.99
574.352	1061.83
574.554	1155.61
574.757	1062.03
574.959	1011.46
575.162	1031.8
575.364	1055.83
575.566	1136.81
575.769	1002.55
575.971	1011.65
576.173	946.94
576.376	1029.67
576.578	1077.33
576.78	1071.33
576.982	950.43
577.185	1012.23
577.387	982.2
577.589	970.38
577.791	990.53
577.993	1000.41
578.196	988.79
578.398	1007.39
578.6	1019.01
578.802	988.21
579.004	966.7
579.206	963.6
579.408	1005.45
579.61	957.98
579.812	1010.88
580.014	979.68
580.216	944.03
580.418	964.38
580.62	953.91
580.822	966.31
581.024	967.28
581.226	1026.38
581.428	974.65
581.63	1056.21
581.832	967.48
582.034	1014.17
582.236	999.64
582.438	1008.16
582.64	1019.59
582.841	1056.41
583.043	1062.03
583.245	1002.55
583.447	1035.29
583.649	991.89
583.85	1007.58
584.052	1054.47
584.254	969.03
584.456	1038.19
584.657	939.96
584.859	1015.91
585.061	980.07
585.262	976.2
585.464	939.38
585.666	1009.71
585.867	957.21
586.069	1037.03
586.27	995.38
586.472	947.33
586.674	949.65
586.875	961.66
587.077	939.19
587.278	956.43
587.48	901.22
587.681	1047.3
587.883	972.32
588.084	891.92
588.285	918.26
588.487	919.62
588.688	923.69
588.89	905.87
589.091	850.26
589.292	874.09
589.494	842.7
589.695	851.42
589.896	775.47
590.098	781.67
590.299	849.68
590.5	806.28
590.702	829.92
590.903	872.73
591.104	887.46
591.305	873.32
591.507	941.51
591.708	880.87
591.909	862.85
592.11	953.53
592.311	875.64
592.512	869.83
592.714	829.14
592.915	824.1
593.116	865.18
593.317	898.5
593.518	864.4
593.719	873.7
593.92	875.64
594.121	905.87
594.322	869.25
594.523	889.4
594.724	833.6
594.925	859.95
595.126	866.15
595.327	895.6
595.528	879.71
595.729	853.55
595.929	853.75
596.13	848.52
596.331	876.42
596.532	850.07
596.733	939.38
596.934	928.73
597.135	920.2
597.335	902.77
597.536	843.48
597.737	876.03
597.938	832.24
598.138	890.37
598.339	843.48
598.54	879.13
598.74	860.33
598.941	848.71
599.142	908.77
599.342	900.05
599.543	841.15
599.744	842.7
599.944	873.32
600.145	858.4
600.345	857.04
600.546	933.57
600.746	883.78
600.947	956.05
601.147	892.11
601.348	895.79
601.548	843.09
601.749	883.58
601.949	806.67
602.15	817.52
602.35	843.09
602.551	900.44
602.751	823.33
602.951	874.09
603.152	792.52
603.352	879.32
603.552	878.55
603.753	882.81
603.953	856.85
604.153	864.21
604.354	841.54
604.554	803.76
604.754	842.7
604.954	848.32
605.155	855.68
605.355	870.02
605.555	874.87
605.755	861.3
605.955	867.31
606.155	874.87
606.356	836.12
606.556	871.77
606.756	861.88
606.956	821
607.156	887.27
607.356	819.84
607.556	843.28
607.756	847.55
607.956	892.11
608.156	861.69
608.356	815.97
608.556	860.53
608.756	813.45
608.956	797.75
609.156	857.23
609.356	797.95
609.556	786.13
609.755	811.51
609.955	795.62
610.155	800.27
610.355	814.42
610.555	791.55
610.755	811.32
610.954	724.32
611.154	810.35
611.354	808.6
611.554	817.52
611.753	776.25
611.953	760.36
612.153	835.53
612.352	801.82
612.552	761.14
612.752	731.3
612.951	787.87
613.151	787.1
613.351	743.89
613.55	794.07
613.75	788.84
613.949	744.67
614.149	776.83
614.348	751.64
614.548	737.5
614.747	722.39
614.947	737.89
615.146	679.76
615.346	792.91
615.545	754.94
615.745	770.63
615.944	775.86
616.144	755.52
616.343	737.89
616.542	739.82
616.742	768.3
616.941	761.72
617.14	715.99
617.34	743.5
617.539	761.72
617.738	704.56
617.938	771.02
618.137	716.57
618.336	683.83
618.535	730.52
618.734	733.43
618.934	747.96
619.133	747.19
619.332	716.57
619.531	698.94
619.73	716.77
619.929	760.94
620.128	742.54
620.328	738.47
620.527	709.21
620.726	693.32
620.925	707.08
621.124	722.58
621.323	736.34
621.522	697.97
621.721	704.76
621.92	674.53
622.119	725.49
622.318	666.01
622.517	701.85
622.715	715.8
622.914	625.13
623.113	688.29
623.312	644.11
623.511	704.37
623.71	652.25
623.909	661.94
624.107	707.66
624.306	659.61
624.505	661.94
624.704	669.49
624.902	666.2
625.101	699.72
625.3	698.94
625.499	641.4
625.697	658.26
625.896	625.51
626.095	649.73
626.293	598.78
626.492	628.42
626.69	691.19
626.889	639.85
627.088	669.11
627.286	634.81
627.485	614.86
627.683	652.06
627.882	649.93
628.08	593.16
628.279	641.98
628.477	686.35
628.676	591.99
628.874	669.88
629.073	601.88
629.271	604.39
629.469	658.84
629.668	601.29
629.866	599.74
630.065	608.66
630.263	621.25
630.461	609.24
630.66	606.91
630.858	651.48
631.056	666.01
631.254	638.88
631.453	612.53
631.651	666.97
631.849	592.96
632.047	636.56
632.245	620.28
632.444	687.32
632.642	667.94
632.84	648.96
633.038	619.89
633.236	595.09
633.434	597.42
633.632	603.23
633.83	622.41
634.028	668.52
634.227	648.57
634.425	696.04
634.623	632.49
634.821	657.29
635.019	622.41
635.216	607.49
635.414	655.35
635.612	656.51
635.81	622.41
636.008	692.94
636.206	651.86
636.404	655.54
636.602	621.64
636.8	638.69
636.997	649.73
637.195	661.74
637.393	625.71
637.591	681.89
637.789	629.58
637.986	598.58
638.184	620.48
638.382	666.59
638.58	658.26
638.777	687.32
638.975	599.74
639.173	639.85
639.37	637.33
639.568	649.93
639.765	628.81
639.963	580.37
640.161	645.28
640.358	633.46
640.556	546.27
640.753	596.84
640.951	575.72
641.148	621.83
641.346	616.41
641.543	625.9
641.741	637.14
641.938	554.8
642.136	588.12
642.333	594.32
642.531	637.91
642.728	660
642.925	596.26
643.123	570.88
643.32	626.29
643.517	594.13
643.715	567.2
643.912	582.11
644.109	611.95
644.306	586.57
644.504	582.69
644.701	581.53
644.898	618.34
645.095	583.86
645.293	574.56
645.49	623.38
645.687	591.8
645.884	652.25
646.081	539.49
646.278	550.92
646.475	570.49
646.672	558.86
646.87	562.74
647.067	558.48
647.264	602.84
647.461	509.46
647.658	506.36
647.855	582.89
648.052	539.1
648.249	473.42
648.446	527.67
648.642	536.97
648.839	525.54
649.036	522.83
649.233	489.7
649.43	473.03
649.627	467.22
649.824	506.75
650.021	486.79
650.217	498.41
650.414	510.43
650.611	546.85
650.808	536.97
651.004	527.28
651.201	518.18
651.398	596.26
651.595	548.4
651.791	517.4
651.988	548.01
652.185	519.34
652.381	512.36
652.578	489.7
652.775	526.31
652.971	507.33
653.168	495.31
653.364	534.45
653.561	470.71
653.757	514.69
653.954	517.79
654.15	474.97
654.347	575.91
654.543	506.16
654.74	470.13
654.936	471.87
655.133	508.1
655.329	503.84
655.525	481.56
655.722	493.18
655.918	459.28
656.115	507.13
656.311	439.13
656.507	443.97
656.704	370.35
656.9	408.13
657.096	423.43
657.292	426.15
657.489	487.56
657.685	475.75
657.881	460.05
658.077	423.43
658.273	471.48
658.47	485.43
658.666	459.08
658.862	487.76
659.058	432.93
659.254	503.84
659.45	437.77
659.646	497.06
659.842	470.71
660.038	506.16
660.234	428.08
660.43	465.28
660.626	520.11
660.822	474.39
661.018	497.06
661.214	474.2
661.41	454.05
661.606	459.47
661.802	484.27
661.998	462.96
662.194	433.32
662.39	478.27
662.586	484.27
662.781	481.36
662.977	486.21
663.173	505.97
663.369	488.73
663.564	482.91
663.76	488.92
663.956	442.62
664.152	470.52
664.347	401.15
664.543	431.57
664.739	445.52
664.934	373.84
665.13	387.59
665.326	468.38
665.521	448.43
665.717	415.1
665.912	404.06
666.108	371.9
666.304	395.15
666.499	423.63
666.695	338.77
666.89	421.5
667.086	457.15
667.281	463.93
667.477	490.08
667.672	457.92
667.867	430.22
668.063	395.92
668.258	383.52
668.454	429.63
668.649	482.14
668.844	413.17
669.04	444.94
669.235	431.77
669.43	369.38
669.626	383.14
669.821	399.22
670.016	388.17
670.211	422.27
670.407	365.89
670.602	398.83
670.797	398.05
670.992	445.72
671.187	403.28
671.382	430.6
671.578	381.97
671.773	416.85
671.968	367.25
672.163	406
672.358	424.98
672.553	392.05
672.748	372.48
672.943	451.53
673.138	387.2
673.333	422.47
673.528	354.46
673.723	415.68
673.918	386.82
674.113	355.24
674.308	457.34
674.503	433.9
674.698	424.6
674.892	438.35
675.087	411.62
675.282	395.53
675.477	350.78
675.672	432.73
675.867	388.37
676.061	367.25
676.256	338.38
676.451	389.34
676.646	388.17
676.84	362.21
677.035	366.67
677.23	339.15
677.424	398.44
677.619	435.06
677.814	428.67
678.008	402.32
678.203	362.21
678.397	366.47
678.592	384.88
678.787	412
678.981	355.24
679.176	369.19
679.37	384.49
679.565	339.35
679.759	362.99
679.954	415.1
680.148	439.9
680.342	424.02
680.537	384.88
680.731	377.13
680.926	415.3
681.12	402.7
681.314	384.1
681.509	351.17
681.703	390.3
681.897	398.44
682.092	371.51
682.286	355.62
682.48	423.82
682.674	428.28
682.869	381.2
683.063	374.8
683.257	452.11
683.451	350.39
683.645	419.56
683.839	411.42
684.034	387.79
684.228	435.06
684.422	359.69
684.616	376.74
684.81	419.17
685.004	400.96
685.198	389.92
685.392	423.82
685.586	353.3
685.78	398.83
685.974	429.63
686.168	414.13
686.362	449.2
686.556	349.62
686.75	356.2
686.944	384.1
687.138	380.42
687.331	310.48
687.525	344.97
687.719	294.98
687.913	350.78
688.107	347.49
688.301	312.42
688.494	346.71
688.688	304.28
688.882	286.46
689.076	299.05
689.269	336.05
689.463	409.87
689.657	337.02
689.85	340.9
690.044	350.97
690.238	348.65
690.431	349.42
690.625	328.11
690.818	352.33
691.012	380.23
691.205	409.48
691.399	347.29
691.593	413.75
691.786	420.72
691.98	454.24
692.173	454.82
692.366	451.14
692.56	452.11
692.753	476.72
692.947	416.65
693.14	500.93
693.333	474.2
693.527	430.41
693.72	451.53
693.914	435.06
694.107	461.22
694.3	490.47
694.493	449.78
694.687	503.65
694.88	444.36
695.073	521.66
695.266	501.51
695.46	476.13
695.653	528.83
695.846	532.13
696.039	470.71
696.232	492.8
696.425	559.06
696.618	554.21
696.812	546.08
697.005	596.45
697.198	653.61
697.391	610.21
697.584	615.05
697.777	642.56
697.97	625.9
698.163	646.24
698.356	616.21
698.549	745.64
698.742	680.34
698.935	644.5
699.127	691.19
699.32	650.31
699.513	668.14
699.706	687.71
699.899	719.29
700.092	684.22
700.285	744.28
700.477	654.77
700.67	718.9
700.863	723.94
701.056	799.89
701.248	775.86
701.441	815.39
701.634	778.57
701.826	824.1
702.019	770.44
702.212	825.46
702.404	792.14
702.597	784.19
702.79	791.55
702.982	829.92
703.175	842.7
703.367	877
703.56	871.96
703.752	970.19
703.945	920.2
704.137	905.48
704.33	935.12
704.522	958.18
704.715	948.68
704.907	963.02
705.1	993.63
705.292	1003.71
705.484	986.85
705.677	1022.5
705.869	1019.01
706.061	1056.41
706.254	1082.56
706.446	1065.13
706.638	1062.61
706.831	1150.57
707.023	1079.66
707.215	1197.07
707.407	1143.4
707.599	1169.56
707.792	1193.58
707.984	1171.3
708.176	1211.02
708.368	1195.9
708.56	1233.1
708.752	1221.29
708.944	1219.93
709.136	1261.59
709.329	1243.95
709.521	1381.71
709.713	1302.47
709.905	1315.25
710.097	1384.23
710.289	1335.79
710.481	1332.88
710.672	1348
710.864	1370.86
711.056	1425.3
711.248	1414.84
711.44	1418.91
711.632	1377.25
711.824	1442.93
712.016	1489.82
712.207	1539.42
712.399	1506.09
712.591	1575.07
712.783	1519.85
712.975	1541.55
713.166	1506.09
713.358	1552.4
713.55	1605.87
713.741	1605.87
713.933	1602
714.125	1582.43
714.316	1579.91
714.508	1652.18
714.7	1686.47
714.891	1659.74
715.083	1768.23
715.274	1686.47
715.466	1665.16
715.657	1721.93
715.849	1688.6
716.04	1725.22
716.232	1663.8
716.423	1713.21
716.615	1617.69
716.806	1618.85
716.998	1577.59
717.189	1575.26
717.381	1479.36
717.572	1453.78
717.763	1498.73
717.955	1486.91
718.146	1467.73
718.337	1426.46
718.528	1386.75
718.72	1368.73
718.911	1390.81
719.102	1358.07
719.293	1438.09
719.485	1389.46
719.676	1365.05
719.867	1351.29
720.058	1363.3
720.249	1392.17
720.44	1404.18
720.632	1457.08
720.823	1528.38
721.014	1620.79
721.205	1609.94
721.396	1681.82
721.587	1760.68
721.778	1804.66
721.969	1863.95
722.16	1915.48
722.351	1921.49
722.542	2018.17
722.733	2027.08
722.924	1959.27
723.115	2017.2
723.305	1997.05
723.496	2007.12
723.687	1863.95
723.878	1936.21
724.069	1927.69
724.26	1896.11
724.45	1883.51
724.641	1880.22
724.832	1921.1
725.023	1901.92
725.213	1869.18
725.404	1893.01
725.595	1873.05
725.785	1887.39
725.976	1937.57
726.167	1936.6
726.357	1947.64
726.548	2062.73
726.739	1976.9
726.929	2064.09
727.12	2097.22
727.31	2107.29
727.501	2060.02
727.691	2084.04
727.882	2102.64
728.072	2153.21
728.263	2162.51
728.453	2176.85
728.644	2224.9
728.834	2233.23
729.024	2168.9
729.215	2150.69
729.405	2220.83
729.596	2280.5
729.786	2327.78
729.976	2300.46
730.167	2306.27
730.357	2286.12
730.547	2301.43
730.737	2381.06
730.928	2399.66
731.118	2437.44
731.308	2382.61
731.498	2384.35
731.688	2502.92
731.879	2517.07
732.069	2534.5
732.259	2557.95
732.449	2605.22
732.639	2699.77
732.829	2743.36
733.019	2761.77
733.209	2822.22
733.399	2820.67
733.589	2948.74
733.779	2977.8
733.969	2978.96
734.159	3059.75
734.349	3106.25
734.539	3132.6
734.729	3096.95
734.919	3152.17
735.109	3197.51
735.299	3091.33
735.488	3175.81
735.678	3191.11
735.868	3178.13
736.058	3202.54
736.248	3169.41
736.437	3132.41
736.627	3138.8
736.817	3226.38
737.007	3243.43
737.196	3292.44
737.386	3227.73
737.576	3253.89
737.765	3307.36
737.955	3296.9
738.144	3449.19
738.334	3387.57
738.524	3326.74
738.713	3383.31
738.903	3373.82
739.092	3434.85
739.282	3426.71
739.471	3441.05
739.661	3445.89
739.85	3512.35
740.04	3489.29
740.229	3525.72
740.419	3569.11
740.608	3564.46
740.797	3538.7
740.987	3643.51
741.176	3611.93
741.365	3584.81
741.555	3549.16
741.744	3642.35
741.933	3604.96
742.123	3659.21
742.312	3662.89
742.501	3713.26
742.69	3748.14
742.88	3660.95
743.069	3773.52
743.258	3735.35
743.447	3798.51
743.636	3799.09
743.825	3752.98
744.014	3784.17
744.204	3790.57
744.393	3759.76
744.582	3862.64
744.771	3841.14
744.96	3822.73
745.149	3843.07
745.338	3780.88
745.527	3854.7
745.716	3864.58
745.905	3850.24
746.094	3900.81
746.283	3922.12
746.471	3918.25
746.66	3935.49
746.849	3902.55
747.038	3958.55
747.227	3895.19
747.416	3946.15
747.604	3942.27
747.793	3920.96
747.982	3917.67
748.171	3938.78
748.359	3981.02
748.548	3945.57
748.737	3930.45
748.926	3930.07
749.114	3835.13
749.303	3922.32
749.491	3918.83
749.68	3855.67
749.869	3961.45
750.057	3925.22
750.246	3882.99
750.434	3870.39
750.623	3897.13
750.811	3901.39
751	3932.39
751.188	3859.74
751.377	3910.5
751.565	3911.47
751.754	3859.35
751.942	3883.95
752.131	3940.92
752.319	3855.47
752.507	3796.19
752.696	3862.84
752.884	3913.02
753.072	3865.74
753.261	3927.93
753.449	3891.12
753.637	3832.22
753.825	3903.52
754.014	3853.15
754.202	3880.47
754.39	3927.74
754.578	3946.53
754.766	3837.07
754.955	3808
755.143	3932.58
755.331	3857.6
755.519	3898.29
755.707	3859.35
755.895	3843.46
756.083	3902.17
756.271	3827.96
756.459	3852.76
756.647	3899.45
756.835	3839
757.023	3795.22
757.211	3823.12
757.399	3791.15
757.587	3828.15
757.775	3708.42
757.963	3775.26
758.151	3800.06
758.339	3742.91
758.526	3758.79
758.714	3760.92
758.902	3640.03
759.09	3518.74
759.278	3245.94
759.465	3028.95
759.653	2629.44
759.841	2359.36
760.028	2042.97
760.216	1754.48
760.404	1667.68
760.591	1362.72
760.779	1152.7
760.967	1011.07
761.154	840.57
761.342	889.59
761.529	855.68
761.717	903.54
761.905	933.76
762.092	978.71
762.28	905.28
762.467	914.78
762.655	826.62
762.842	882.62
763.029	890.17
763.217	866.53
763.404	891.53
763.592	939.19
763.779	883.39
763.966	919.04
764.154	945.58
764.341	1028.31
764.528	1053.89
764.716	1119.96
764.903	1166.65
765.09	1262.17
765.277	1332.69
765.465	1497.57
765.652	1543.68
765.839	1657.8
766.026	1764.94
766.213	1842.63
766.4	1934.08
766.588	2145.46
766.775	2164.64
766.962	2332.04
767.149	2394.04
767.336	2532.57
767.523	2528.69
767.71	2662.57
767.897	2810.21
768.084	2854.96
768.271	2903.21
768.458	2999.89
768.645	3049.48
768.832	3043.67
769.019	3109.93
769.206	3123.3
769.392	3205.64
769.579	3287.79
769.766	3238
769.953	3266.87
770.14	3310.66
770.327	3295.74
770.513	3386.99
770.7	3411.4
770.887	3368.78
771.073	3370.33
771.26	3369.36
771.447	3389.12
771.634	3380.6
771.82	3466.82
772.007	3343.01
772.193	3423.42
772.38	3425.35
772.567	3398.04
772.753	3385.44
772.94	3451.51
773.126	3445.12
773.313	3440.27
773.499	3435.04
773.686	3448.22
773.872	3413.34
774.059	3473.79
774.245	3375.37
774.432	3359.09
774.618	3338.94
774.804	3359.09
774.991	3347.66
775.177	3404.82
775.363	3380.6
775.55	3432.14
775.736	3346.5
775.922	3370.91
776.109	3348.63
776.295	3332.55
776.481	3380.79
776.667	3344.76
776.853	3278.11
777.04	3283.72
777.226	3351.15
777.412	3396.49
777.598	3284.5
777.784	3353.28
777.97	3237.61
778.156	3327.32
778.342	3259.51
778.528	3262.22
778.715	3226.57
778.901	3255.24
779.087	3313.56
779.272	3225.41
779.458	3199.64
779.644	3268.81
779.83	3233.74
780.016	3294.77
780.202	3267.45
780.388	3213.78
780.574	3133.76
780.76	3177.36
780.946	3202.74
781.131	3191.5
781.317	3155.46
781.503	3149.65
781.689	3176.2
781.874	3272.49
782.06	3140.93
782.246	3170.19
782.432	3152.56
782.617	3175.61
782.803	3175.03
782.989	3105.67
783.174	3141.9
783.36	3044.45
783.545	3106.25
783.731	3101.22
783.916	2973.34
784.102	3079.9
784.288	3028.37
784.473	3075.25
784.659	3006.28
784.844	3057.43
785.029	3003.95
785.215	3027.01
785.4	2984.58
785.586	3079.71
785.771	2938.08
785.956	3076.22
786.142	2953.19
786.327	2996.59
786.512	2993.88
786.698	2954.74
786.883	2899.33
787.068	2971.6
787.254	2971.6
787.439	2916.19
787.624	2916.38
787.809	2909.99
787.994	2910.96
788.18	2945.64
788.365	2817.76
788.55	2842.56
788.735	2873.95
788.92	2866.59
789.105	2872.79
789.29	2832.68
789.475	2762.74
789.66	2738.91
789.845	2745.5
790.03	2749.37
790.215	2831.91
790.4	2807.3
790.585	2813.69
790.77	2778.63
790.955	2765.45
791.14	2739.3
791.325	2784.63
791.51	2665.67
791.695	2745.5
791.879	2741.43
792.064	2687.76
792.249	2772.23
792.434	2760.8
792.618	2723.8
792.803	2805.36
792.988	2769.71
793.173	2710.04
793.357	2728.06
793.542	2664.7
793.727	2745.11
793.911	2772.81
794.096	2767.19
794.281	2772.43
794.465	2846.63
794.65	2761.19
794.834	2799.74
795.019	2842.17
795.203	2796.45
795.388	2817.18
795.572	2828.03
795.757	2793.74
795.941	2818.73
796.126	2803.81
796.31	2742.98
796.494	2767.78
796.679	2765.06
796.863	2776.49
797.048	2840.62
797.232	2800.91
797.416	2792.77
797.601	2741.04
797.785	2846.24
797.969	2830.74
798.153	2808.27
798.338	2837.33
798.522	2892.36
798.706	2839.66
798.89	2824.54
799.074	2960.94
799.258	2897.59
799.443	2863.1
799.627	2823.77
799.811	2870.07
799.995	2816.6
800.179	2775.72
800.363	2748.4
800.547	2831.91
800.731	2809.63
800.915	2765.26
801.099	2765.84
801.283	2800.91
801.467	2812.73
801.651	2803.43
801.835	2839.08
802.019	2798
802.202	2804.78
802.386	2770.1
802.57	2737.16
802.754	2744.91
802.938	2751.89
803.121	2794.51
803.305	2826.87
803.489	2793.54
803.673	2795.29
803.856	2786.38
804.04	2761.58
804.224	2787.54
804.407	2760.8
804.591	2757.12
804.775	2804.01
804.958	2810.98
805.142	2879.57
805.326	2785.02
805.509	2784.63
805.693	2850.7
805.876	2810.59
806.06	2813.5
806.243	2823.38
806.427	2865.42
806.61	2865.42
806.794	2817.96
806.977	2890.61
807.16	2856.9
807.344	2827.26
807.527	2812.14
807.71	2827.06
807.894	2805.56
808.077	2838.11
808.26	2748.4
808.444	2727.48
808.627	2826.87
808.81	2760.61
808.993	2722.25
809.177	2708.88
809.36	2714.69
809.543	2718.95
809.726	2666.83
809.909	2639.13
810.092	2618.01
810.276	2620.33
810.459	2614.91
810.642	2589.92
810.825	2545.74
811.008	2613.94
811.191	2496.53
811.374	2514.74
811.557	2532.76
811.74	2560.47
811.923	2461.27
812.106	2465.92
812.289	2425.62
812.472	2399.08
812.654	2403.92
812.837	2396.36
813.02	2334.75
813.203	2275.08
813.386	2211.53
813.569	2180.14
813.751	2118.53
813.934	2167.93
814.117	2161.15
814.3	2080.75
814.482	2028.63
814.665	2000.34
814.848	1966.63
815.03	1862.78
815.213	1914.9
815.396	1900.95
815.578	1860.85
815.761	1806.4
815.943	1840.5
816.126	1748.47
816.309	1737.43
816.491	1722.12
816.674	1616.53
816.856	1700.81
817.039	1695.97
817.221	1754.28
817.403	1688.99
817.586	1719.22
817.768	1719.22
817.951	1624.47
818.133	1657.6
818.315	1663.22
818.498	1710.88
818.68	1761.07
818.862	1762.81
819.045	1758.74
819.227	1743.82
819.409	1727.16
819.591	1775.4
819.774	1750.6
819.956	1748.28
820.138	1794.78
820.32	1789.74
820.502	1826.75
820.684	1939.12
820.866	1901.53
821.048	1976.71
821.231	2007.32
821.413	1998.02
821.595	1985.42
821.777	1995.31
821.959	1967.41
822.141	2016.81
822.323	1912.77
822.505	1811.44
822.686	1738.59
822.868	1691.7
823.05	1576.04
823.232	1580.69
823.414	1466.57
823.596	1567.32
823.778	1543.49
823.96	1582.24
824.141	1569.64
824.323	1615.76
824.505	1683.76
824.687	1727.93
824.868	1788.77
825.05	1879.64
825.232	1901.34
825.413	1946.29
825.595	1918.58
825.777	1877.31
825.958	1935.44
826.14	1913.74
826.321	1980.39
826.503	1894.17
826.685	1932.34
826.866	1942.99
827.048	1948.81
827.229	1870.92
827.411	1849.41
827.592	1773.66
827.773	1823.06
827.955	1755.06
828.136	1764.94
828.318	1726.38
828.499	1744.4
828.68	1720.57
828.862	1759.32
829.043	1783.73
829.224	1689.96
829.406	1686.09
829.587	1688.8
829.768	1716.5
829.949	1713.4
830.131	1719.8
830.312	1780.44
830.493	1772.88
830.674	1740.14
830.855	1742.66
831.036	1747.89
831.218	1783.73
831.399	1787.61
831.58	1735.49
831.761	1740.33
831.942	1754.28
832.123	1748.47
832.304	1694.22
832.485	1695
832.666	1708.56
832.847	1697.52
833.028	1746.92
833.209	1713.4
833.389	1701
833.57	1638.62
833.751	1704.68
833.932	1744.6
834.113	1728.13
834.294	1691.32
834.475	1750.02
834.655	1830.23
834.836	1788
835.017	1829.07
835.198	1719.41
835.378	1765.33
835.559	1860.26
835.74	1744.79
835.92	1765.33
836.101	1743.82
836.281	1792.45
836.462	1778.89
836.643	1815.31
836.823	1840.31
837.004	1823.45
837.184	1859.68
837.365	1830.81
837.545	1833.72
837.726	1822.48
837.906	1879.44
838.087	1838.18
838.267	1824.42
838.448	1788.97
838.628	1797.3
838.808	1816.28
838.989	1858.71
839.169	1771.92
839.349	1884.48
839.53	1843.41
839.71	1886.81
839.89	1813.38
840.07	1904.24
840.251	1824.61
840.431	1857.16
840.611	1812.8
840.791	1810.47
840.971	1825
841.151	1821.32
841.332	1782.96
841.512	1834.11
841.692	1760.68
841.872	1819
842.052	1805.43
842.232	1838.95
842.412	1757.77
842.592	1779.08
842.772	1816.86
842.952	1815.7
843.132	1813.57
843.312	1778.5
843.492	1791.1
843.672	1832.56
843.851	1764.36
844.031	1753.7
844.211	1791.87
844.391	1776.95
844.571	1781.99
844.751	1788
844.93	1760.68
845.11	1724.64
845.29	1748.28
845.47	1835.66
845.649	1783.35
845.829	1799.04
846.009	1754.48
846.188	1778.89
846.368	1778.89
846.547	1742.08
846.727	1803.3
846.907	1753.51
847.086	1778.89
847.266	1768.82
847.445	1741.5
847.625	1742.47
847.804	1724.83
847.984	1736.85
848.163	1712.63
848.343	1705.85
848.522	1737.04
848.701	1726.58
848.881	1712.63
849.06	1729.68
849.239	1688.02
849.419	1720.18
849.598	1646.56
849.777	1646.75
849.957	1615.56
850.136	1610.52
850.315	1555.31
850.494	1559.96
850.674	1547.94
850.853	1622.92
851.032	1608.78
851.211	1668.45
851.39	1630.87
851.569	1564.61
851.748	1598.12
851.927	1640.94
852.107	1621.95
852.286	1566.16
852.465	1585.72
852.644	1637.84
852.823	1601.61
853.002	1597.54
853.181	1592.7
853.359	1586.11
853.538	1533.02
853.717	1584.17
853.896	1470.06
854.075	1420.46
854.254	1442.16
854.433	1354.78
854.611	1391.59
854.79	1350.9
854.969	1410
855.148	1424.72
855.327	1405.54
855.505	1451.07
855.684	1426.85
855.863	1480.52
856.041	1421.62
856.22	1470.64
856.399	1465.99
856.577	1583.98
856.756	1568.67
856.934	1609.36
857.113	1632.22
857.291	1528.18
857.47	1510.16
857.648	1537.09
857.827	1528.38
858.005	1586.5
858.184	1523.73
858.362	1582.24
858.541	1521.79
858.719	1529.15
858.898	1552.01
859.076	1535.74
859.254	1559.57
859.433	1510.74
859.611	1464.44
859.789	1461.73
859.967	1535.93
860.146	1592.51
860.324	1499.31
860.502	1473.93
860.68	1439.45
860.859	1466.57
861.037	1460.95
861.215	1519.46
861.393	1490.59
861.571	1481.49
861.749	1476.06
861.927	1498.34
862.105	1459.79
862.283	1463.47
862.461	1430.15
862.639	1421.23
862.817	1465.02
862.995	1484.01
863.173	1479.55
863.351	1430.34
863.529	1448.74
863.707	1481.49
863.885	1464.24
864.063	1372.21
864.241	1419.68
864.418	1467.34
864.596	1396.82
864.774	1385.78
864.952	1418.33
865.129	1464.05
865.307	1361.17
865.485	1369.31
865.663	1393.72
865.84	1319.32
866.018	1351.48
866.196	1227.29
866.373	1246.09
866.551	1209.08
866.728	1180.99
866.906	1192.22
867.084	1204.82
867.261	1291.62
867.439	1297.23
867.616	1275.92
867.794	1321.07
867.971	1317.19
868.149	1303.63
868.326	1335.21
868.503	1335.02
868.681	1296.27
868.858	1303.24
869.035	1261.78
869.213	1341.99
869.39	1285.42
869.567	1396.24
869.745	1322.42
869.922	1311.96
870.099	1331.53
870.276	1336.37
870.454	1315.64
870.631	1331.14
870.808	1311.57
870.985	1323.58
871.162	1368.34
871.339	1306.15
871.517	1226.52
871.694	1292.97
871.871	1317.19
872.048	1294.33
872.225	1258.68
872.402	1284.06
872.579	1200.36
872.756	1275.34
872.933	1207.72
873.11	1248.02
873.287	1296.85
873.463	1242.6
873.64	1242.4
873.817	1264.1
873.994	1216.64
874.171	1192.22
874.348	1262.94
874.524	1173.62
874.701	1215.86
874.878	1165.68
875.055	1239.11
875.231	1220.12
875.408	1230.39
875.585	1168.01
875.762	1196.29
875.938	1206.56
876.115	1166.07
876.291	1162.97
876.468	1157.54
876.645	1154.64
876.821	1165.1
876.998	1186.41
877.174	1195.52
877.351	1213.54
877.527	1162.19
877.704	1195.52
877.88	1188.74
878.057	1129.26
878.233	1225.16
878.409	1162.39
878.586	1174.4
878.762	1136.81
878.938	1143.4
879.115	1091.09
879.291	1134.1
879.467	1081.21
879.644	1124.22
879.82	1169.94
879.996	1146.11
880.172	1083.73
880.349	1088.18
880.525	1131.19
880.701	1073.84
880.877	1075.78
881.053	1111.43
881.229	1077.91
881.405	1118.79
881.581	1060.48
881.757	1099.61
881.933	1092.64
882.109	1135.07
882.285	1118.99
882.461	1054.47
882.637	1114.34
882.813	1075.59
882.989	1085.28
883.165	1137.97
883.341	1080.04
883.517	1116.47
883.693	1117.24
883.869	1100.97
884.044	1093.61
884.22	1109.3
884.396	1147.86
884.572	1107.56
884.747	1154.25
884.923	1110.85
885.099	1126.93
885.275	1147.66
885.45	1092.83
885.626	1092.64
885.801	1075.39
885.977	1088.57
886.153	1013.2
886.328	1096.71
886.504	1068.42
886.679	1090.31
886.855	1078.49
887.03	1083.73
887.206	1121.12
887.381	1096.32
887.557	1130.42
887.732	1100.39
887.908	1108.14
888.083	1125.38
888.258	1077.14
888.434	1102.71
888.609	1105.42
888.784	1132.74
888.96	1057.38
889.135	1056.99
889.31	1047.88
889.485	1080.04
889.661	1059.51
889.836	1137.59
890.011	1114.34
890.186	1087.99
890.361	1038.78
890.537	1076.36
890.712	1072.1
890.887	1093.99
891.062	1089.73
891.237	1131.77
891.412	1049.82
891.587	1099.42
891.762	1084.31
891.937	1148.05
892.112	1060.86
892.287	1072.88
892.462	999.06
892.637	1004.1
892.812	989.56
892.987	1003.13
893.161	1007
893.336	1005.64
893.511	959.53
893.686	1019.21
893.861	946.36
894.035	1002.93
894.21	980.65
894.385	941.13
894.56	976
894.734	901.02
894.909	915.75
895.084	898.12
895.258	853.55
895.433	907.42
895.608	845.22
895.782	799.89
895.957	849.87
896.131	819.65
896.306	760.75
896.48	797.56
896.655	740.41
896.829	718.51
897.004	683.64
897.178	728.2
897.353	715.41
897.527	772.37
897.701	755.13
897.876	695.84
898.05	754.16
898.224	745.64
898.399	772.76
898.573	703.4
898.747	608.85
898.921	662.52
899.096	585.21
899.27	563.13
899.444	596.84
899.618	619.31
899.792	665.42
899.967	634.23
900.141	668.72
900.315	580.37
900.489	580.95
900.663	647.02
900.837	612.92
901.011	564.29
901.185	698.56
901.359	662.91
901.533	620.48
901.707	636.36
901.881	609.04
902.055	570.88
902.229	610.79
902.403	685.38
902.576	643.53
902.75	611.18
902.924	752.03
903.098	702.04
903.272	729.36
903.446	772.95
903.619	776.44
903.793	786.71
903.967	751.84
904.14	825.46
904.314	820.81
904.488	776.44
904.661	839.99
904.835	829.14
905.009	845.8
905.182	869.44
905.356	809.38
905.529	804.54
905.703	777.99
905.876	759
906.05	740.02
906.223	718.71
906.397	680.54
906.57	667.94
906.744	617.18
906.917	647.41
907.09	624.16
907.264	604.01
907.437	587.73
907.61	571.84
907.784	596.06
907.957	628.23
908.13	555.96
908.304	580.95
908.477	561.96
908.65	547.63
908.823	544.33
908.996	590.83
909.17	541.23
909.343	546.46
909.516	541.62
909.689	538.91
909.862	535.23
910.035	534.65
910.208	538.33
910.381	540.46
910.554	611.37
910.727	531.74
910.9	528.83
911.073	543.56
911.246	595.48
911.419	594.71
911.592	574.75
911.765	557.31
911.938	525.35
912.11	551.7
912.283	535.81
912.456	602.65
912.629	568.94
912.802	544.53
912.974	469.35
913.147	443.39
913.32	429.25
913.493	471.1
913.665	470.32
913.838	451.33
914.01	448.43
914.183	501.13
914.356	474.97
914.528	516.05
914.701	569.13
914.873	531.93
915.046	486.01
915.218	432.73
915.391	369.38
915.563	409.68
915.736	463.35
915.908	474
916.081	477.1
916.253	475.55
916.425	501.9
916.598	474.78
916.77	498.61
916.942	431.57
917.115	390.3
917.287	459.67
917.459	421.69
917.632	395.15
917.804	384.88
917.976	445.72
918.148	460.25
918.32	457.34
918.493	485.24
918.665	509.07
918.837	485.24
919.009	542.4
919.181	513.91
919.353	483.5
919.525	508.68
919.697	507.91
919.869	507.52
920.041	548.79
920.213	617.57
920.385	528.83
920.557	527.09
920.729	545.69
920.901	528.45
921.073	523.6
921.244	489.5
921.416	536.78
921.588	499.77
921.76	494.73
921.932	548.21
922.103	505.58
922.275	517.98
922.447	515.27
922.619	455.98
922.79	482.53
922.962	464.32
923.134	484.08
923.305	475.36
923.477	417.82
923.648	426.15
923.82	476.72
923.991	397.47
924.163	400.57
924.335	437.77
924.506	426.34
924.677	498.61
924.849	409.1
925.02	428.47
925.192	444.55
925.363	422.85
925.535	427.5
925.706	435.64
925.877	485.05
926.049	395.53
926.22	429.25
926.391	453.27
926.562	475.94
926.734	435.25
926.905	431.38
927.076	385.65
927.247	414.91
927.419	374.03
927.59	359.3
927.761	365.12
927.932	351.75
928.103	362.4
928.274	300.41
928.445	298.27
928.616	295.95
928.787	313.58
928.958	334.5
929.129	294.21
929.3	300.02
929.471	266.11
929.642	239.57
929.813	190.36
929.984	258.17
930.155	167.3
930.326	228.33
930.496	174.47
930.667	157.03
930.838	164.59
931.009	144.24
931.18	184.74
931.35	153.74
931.521	173.69
931.692	100.07
931.863	68.49
932.033	92.51
932.204	114.6
932.374	138.04
932.545	99.49
932.716	127.2
932.886	139.98
933.057	55.31
933.227	77.21
933.398	143.28
933.568	77.79
933.739	45.05
933.909	48.15
934.08	98.71
934.25	32.07
934.421	42.72
934.591	68.68
934.761	61.13
934.932	21.8
935.102	39.43
935.272	64.61
935.443	32.26
935.613	27.42
935.783	63.65
935.953	26.45
936.123	163.23
936.294	36.33
936.464	19.86
936.634	69.65
936.804	-4.75
936.974	26.25
937.144	81.08
937.314	51.44
937.484	26.25
937.655	38.07
937.825	95.23
937.995	35.75
938.165	65
938.334	40.4
938.504	81.28
938.674	52.21
938.844	63.26
939.014	112.28
939.184	114.21
939.354	139.4
939.524	152.77
939.694	93.29
939.863	74.88
940.033	146.57
940.203	129.71
940.373	102.01
940.542	120.03
940.712	79.53
940.882	144.63
941.051	128.94
941.221	151.41
941.391	141.34
941.56	91.35
941.73	86.12
941.899	164.78
942.069	93.48
942.238	123.32
942.408	113.44
942.577	110.34
942.747	90.58
942.916	53.38
943.086	69.46
943.255	136.49
943.425	85.93
943.594	81.08
943.763	24.7
943.933	41.75
944.102	-9.01
944.271	57.06
944.441	69.85
944.61	52.99
944.779	79.34
944.948	165.56
945.117	46.21
945.287	50.66
945.456	12.88
945.625	48.15
945.794	86.51
945.963	28.58
946.132	85.73
946.301	52.41
946.47	91.93
946.639	26.25
946.808	43.88
946.977	84.57
947.146	88.25
947.315	82.83
947.484	103.17
947.653	86.7
947.822	57.06
947.991	36.52
948.16	133.39
948.329	104.53
948.498	71.4
948.666	85.15
948.835	93.1
949.004	30.9
949.173	13.08
949.341	80.89
949.51	88.45
949.679	112.47
949.847	105.69
950.016	130.1
950.185	157.81
950.353	62.1
950.522	67.71
950.69	118.09
950.859	85.15
951.028	118.28
951.196	97.55
951.365	59.96
951.533	82.25
951.701	95.23
951.87	106.27
952.038	34.2
952.207	72.75
952.375	107.43
952.543	62.48
952.712	66.75
952.88	75.46
953.048	133.78
953.217	107.82
953.385	71.78
953.553	93.68
953.721	27.22
953.89	103.75
954.058	34.97
954.226	45.63
954.394	99.3
954.562	4.75
954.73	84.18
954.898	71.2
955.067	106.08
955.235	58.41
955.403	101.04
955.571	133.78
955.739	101.43
955.907	72.75
956.075	47.56
956.243	58.8
956.41	97.36
956.578	24.12
956.746	39.04
956.914	51.05
957.082	93.1
957.25	108.21
957.418	62.68
957.585	70.23
957.753	140.37
957.921	46.98
958.089	85.73
958.256	95.61
958.424	108.21
958.592	86.9
958.759	59.38
958.927	133.78
959.095	70.81
959.262	102.4
959.43	79.73
959.597	54.93
959.765	93.48
959.932	58.41
960.1	90.38
960.267	94.26
960.435	85.54
960.602	123.32
960.77	71.59
960.937	48.15
961.104	92.13
961.272	51.05
961.439	79.73
961.606	89.61
961.774	99.49
961.941	57.06
962.108	93.29
962.275	94.45
962.443	132.23
962.61	103.36
962.777	156.26
962.944	123.13
963.111	120.61
963.278	108.79
963.446	121.58
963.613	89.8
963.78	108.6
963.947	86.7
964.114	115.76
964.281	173.5
964.448	129.52
964.615	94.65
964.782	77.21
964.949	118.48
965.116	124.87
965.282	122.16
965.449	118.86
965.616	80.7
965.783	131.07
965.95	115.76
966.117	79.34
966.283	68.49
966.45	124.1
966.617	108.21
966.784	125.65
966.95	123.32
967.117	130.88
967.284	91.93
967.45	90.38
967.617	169.24
967.784	132.81
967.95	171.37
968.117	141.92
968.283	160.13
968.45	216.71
968.616	115.96
968.783	144.44
968.949	145.99
969.116	181.64
969.282	121.19
969.449	137.08
969.615	120.03
969.781	76.43
969.948	114.02
970.114	79.15
970.28	175.63
970.447	134.56
970.613	159.55
970.779	119.45
970.945	161.1
971.112	116.54
971.278	143.28
971.444	132.62
971.61	137.46
971.776	86.51
971.942	145.41
972.108	150.25
972.275	135.53
972.441	147.34
972.607	182.99
972.773	119.83
972.939	133.2
973.105	124.29
973.271	78.18
973.437	107.82
973.602	90
973.768	119.06
973.934	95.23
974.1	129.71
974.266	71.78
974.432	121.58
974.598	77.98
974.763	128.94
974.929	121.77
975.095	163.23
975.261	79.34
975.426	47.37
975.592	129.71
975.758	175.05
975.923	65.58
976.089	96.39
976.255	137.27
976.42	119.83
976.586	127.58
976.751	109.37
976.917	175.24
977.082	133.78
977.248	79.15
977.413	40.01
977.579	98.91
977.744	131.46
977.91	69.26
978.075	79.34
978.24	117.9
978.406	73.72
978.571	90.77
978.736	94.06
978.902	116.15
979.067	71.59
979.232	58.22
979.397	95.61
979.563	151.8
979.728	66.94
979.893	91.93
980.058	51.83
980.223	138.82
980.388	97.94
980.554	100.26
980.719	63.45
980.884	118.09
981.049	139.01
981.214	79.34
981.379	111.11
981.544	76.82
981.709	105.11
981.874	96.39
982.039	111.7
982.204	120.61
982.368	104.72
982.533	73.33
982.698	116.73
982.863	147.34
983.028	92.9
983.193	123.9
983.357	95.42
983.522	108.6
983.687	98.71
983.852	100.85
984.016	118.67
984.181	122.35
984.346	123.32
984.51	99.88
984.675	104.14
984.839	99.49
985.004	130.1
985.168	158.58
985.333	125.65
985.498	105.69
985.662	141.34
985.827	138.24
985.991	93.48
986.155	87.09
986.32	144.83
986.484	161.1
986.649	121
986.813	66.75
986.977	118.86
987.142	106.66
987.306	49.11
987.47	113.05
987.634	108.4
987.799	86.31
987.963	114.21
988.127	109.37
988.291	161.88
988.455	78.76
988.62	100.26
988.784	127.58
988.948	100.46
989.112	52.21
989.276	107.43
989.44	101.62
989.604	74.11
989.768	94.06
989.932	164.98
990.096	70.23
990.26	83.8
990.424	49.7
990.588	91.35
990.752	168.08
990.915	128.36
991.079	103.36
991.243	105.88
991.407	106.85
991.571	88.25
991.734	130.68
991.898	128.16
992.062	180.28
992.226	86.12
992.389	57.83
992.553	73.53
992.717	81.66
992.88	72.36
993.044	79.34
993.207	92.32
993.371	129.52
993.535	127.2
993.698	86.31
993.862	125.26
994.025	105.88
994.189	101.62
994.352	109.37
994.515	86.31
994.679	128.55
994.842	69.46
995.006	132.62
995.169	68.49
995.332	68.88
995.496	106.08
995.659	44.27
995.822	82.83
995.985	92.32
996.149	135.33
996.312	95.42
996.475	148.51
996.638	46.01
996.801	106.27
996.964	161.29
997.128	42.72
997.291	80.31
997.454	94.45
997.617	49.89
997.78	122.93
997.943	78.18
998.106	115.57
998.269	57.83
998.432	74.3
998.595	80.7
998.758	20.05
998.92	63.65
999.083	38.85
999.246	57.83
999.409	46.79
999.572	15.98
999.735	56.48
999.897	86.51
1000.06	66.94
1000.223	35.36
1000.386	89.8
1000.548	100.26
1000.711	87.67
1000.874	67.33
1001.036	32.26
1001.199	90.77
1001.361	42.14
1001.524	56.09
1001.687	86.9
1001.849	49.5
1002.012	72.75
1002.174	56.48
1002.337	98.52
1002.499	47.37
1002.661	103.75
1002.824	60.55
1002.986	40.78
1003.149	57.25
1003.311	28
1003.473	130.68
1003.636	72.95
1003.798	77.6
1003.96	69.46
1004.123	70.04
1004.285	55.31
1004.447	58.41
1004.609	65.97
1004.771	104.91
1004.933	27.8
1005.096	52.02
1005.258	12.3
1005.42	46.79
1005.582	96.39
1005.744	86.12
1005.906	46.21
1006.068	72.17
1006.23	13.85
1006.392	11.14
1006.554	18.12
1006.716	91.74
1006.878	70.81
1007.04	17.73
1007.202	57.06
1007.363	68.88
1007.525	71.98
1007.687	77.21
1007.849	94.26
1008.011	9.4
1008.172	41.95
1008.334	42.53
1008.496	65.78
1008.658	28.58
1008.819	53.76
1008.981	9.59
1009.143	21.02
1009.304	35.36
1009.466	68.3
1009.627	84.18
1009.789	124.1
1009.95	76.82
1010.112	35.36
1010.273	65.39
1010.435	32.84
1010.596	20.05
1010.758	13.66
1010.919	27.42
1011.081	-7.07
1011.242	47.56
1011.403	80.7
1011.565	26.45
1011.726	73.91
1011.887	42.72
1012.049	29.55
1012.21	64.03
1012.371	103.36
1012.532	-31.1
1012.693	48.53
1012.855	32.65
1013.016	47.76
1013.177	103.36
1013.338	46.79
1013.499	83.6
1013.66	63.45
1013.821	82.25
1013.982	55.12
1014.143	47.37
1014.304	0.1
1014.465	51.83
1014.626	68.49
1014.787	24.12
1014.948	114.41
1015.109	-33.23
1015.27	58.03
1015.431	23.15
1015.592	30.13
1015.752	44.66
1015.913	50.08
1016.074	61.32
1016.235	30.9
1016.395	53.18
1016.556	52.8
1016.717	43.11
1016.877	90
1017.038	18.7
1017.199	44.85
1017.359	28.77
1017.52	41.95
1017.681	-1.07
1017.841	35.94
1018.002	32.26
1018.162	9.01
1018.323	104.14
1018.483	35.75
1018.644	38.85
1018.804	-8.04
1018.964	3.58
1019.125	28
1019.285	43.5
1019.446	13.27
1019.606	13.27
1019.766	-6.49
1019.926	73.53
1020.087	62.68
1020.247	12.11
1020.407	63.06
1020.567	73.53
1020.728	9.78
1020.888	-7.85
1021.048	11.92
1021.208	6.3
1021.368	45.43
1021.528	59.58
1021.688	65.78
1021.848	47.18
1022.008	30.9
1022.168	4.94
1022.328	19.86
1022.488	43.3
1022.648	14.24
1022.808	30.9
1022.968	68.49
1023.128	15.4
1023.288	0.68
1023.448	35.36
1023.608	34.58
1023.767	56.48
1023.927	-9.78
1024.087	11.14
1024.247	0.29
1024.406	5.33
1024.566	21.22
1024.726	-10.56
1024.885	17.92
1025.045	68.1
1025.205	3.2
1025.364	35.75
1025.524	29.74
1025.683	16.95
1025.843	15.98
1026.003	40.98
1026.162	80.11
1026.321	64.42
1026.481	23.93
1026.64	-15.98
1026.8	36.72
1026.959	42.72
1027.119	30.32
1027.278	1.07
1027.437	20.63
1027.597	40.01
1027.756	12.69
1027.915	65.78
1028.074	66.16
1028.234	10.75
1028.393	38.07
1028.552	8.43
1028.711	-54.15
1028.87	57.25
1029.03	-12.88
1029.189	21.02
1029.348	-33.42
1029.507	6.1
1029.666	2.62
1029.825	-15.98
1029.984	1.84
1030.143	-0.48
1030.302	8.62
1030.461	-46.01
1030.62	15.98
1030.779	26.64
1030.938	-28
1031.097	-21.41
1031.255	25.09
1031.414	89.22
1031.573	82.63
1031.732	-24.12
1031.891	15.21
1032.049	70.43
1032.208	28.77
1032.367	-3.39
1032.525	27.42
1032.684	14.63
1032.843	23.54
1033.001	-25.67
1033.16	129.13
1033.319	87.86
1033.477	34.78
1033.636	6.88
1033.794	-25.87
1033.953	29.55
1034.111	54.35
1034.27	-3.78
1034.428	52.02
1034.587	18.31
1034.745	46.4
1034.903	36.91
1035.062	55.12
1035.22	-21.8
1035.378	62.68
1035.537	-6.49
1035.695	34.97
1035.853	36.33
1036.011	27.42
1036.17	51.63
1036.328	-23.54
1036.486	28.58
1036.644	20.63
1036.802	-55.12
1036.96	-9.4
1037.119	-1.07
1037.277	-4.17
1037.435	-6.49
1037.593	-4.17
1037.751	21.22
1037.909	70.81
1038.067	70.81
