Data from oakcork_FLMT105791__256__17-33-27-054.txt Node

Date: Mon Mar 20 17:33:27 GMT 2023
User: antho
Spectrometer: FLMT10579
Trigger mode: 0
Integration Time (sec): 1.000000E-1
Scans to average: 10
Electric dark correction enabled: true
Nonlinearity correction enabled: false
Boxcar width: 0
XAxis mode: Wavelengths
Number of Pixels in Spectrum: 3648
>>>>>Begin Spectral Data<<<<<
345.248	-150.74
345.464	-150.74
345.681	-150.74
345.898	-162.75
346.114	-146.28
346.331	-35.07
346.548	37.78
346.764	-19.57
346.981	7.56
347.197	-5.81
347.414	13.76
347.631	-12.79
347.847	43.01
348.064	-7.36
348.28	22.67
348.497	-31.19
348.713	-12.98
348.93	26.16
349.146	35.46
349.363	-9.11
349.579	40.88
349.796	6.01
350.012	-12.01
350.229	13.76
350.445	-9.3
350.661	0.77
350.878	8.91
351.094	14.92
351.311	17.24
351.527	35.65
351.743	-1.94
351.96	36.23
352.176	33.71
352.392	43.98
352.609	22.09
352.825	12.21
353.041	9.11
353.257	6.01
353.474	2.52
353.69	0.77
353.906	18.99
354.122	-6.59
354.339	57.35
354.555	4.65
354.771	9.88
354.987	37.59
355.203	52.89
355.42	8.91
355.636	1.36
355.852	3.29
356.068	24.99
356.284	-10.07
356.5	90.48
356.716	37.59
356.932	10.07
357.148	19.18
357.364	11.43
357.58	31.19
357.796	42.62
358.012	35.07
358.228	6.97
358.444	-43.21
358.66	52.12
358.876	17.63
359.092	10.46
359.308	48.82
359.524	37.78
359.74	16.27
359.956	16.47
360.172	-7.17
360.388	59.09
360.604	5.81
360.819	68.39
361.035	17.63
361.251	61.61
361.467	-21.51
361.683	53.86
361.898	34.1
362.114	31.58
362.33	30.03
362.546	27.32
362.762	33.71
362.977	6.78
363.193	19.18
363.409	49.6
363.624	13.76
363.84	18.02
364.056	12.21
364.271	61.61
364.487	36.81
364.703	-2.52
364.918	-20.15
365.134	17.24
365.35	-5.23
365.565	120.9
365.781	35.26
365.996	41.46
366.212	48.82
366.427	22.67
366.643	-6.2
366.858	-3.1
367.074	-9.88
367.289	54.06
367.505	108.69
367.72	-18.99
367.936	12.01
368.151	71.69
368.367	15.11
368.582	23.25
368.798	4.84
369.013	70.72
369.228	31.19
369.444	17.44
369.659	48.05
369.874	33.52
370.09	50.37
370.305	-20.92
370.52	12.98
370.736	75.76
370.951	53.86
371.166	72.66
371.381	82.54
371.597	52.7
371.812	-2.71
372.027	15.69
372.242	25.77
372.458	92.8
372.673	3.68
372.888	6.39
373.103	47.27
373.318	85.64
373.533	36.62
373.749	39.72
373.964	-9.49
374.179	79.24
374.394	-16.08
374.609	67.04
374.824	-9.3
375.039	62.39
375.254	5.42
375.469	79.24
375.684	55.02
375.899	66.26
376.114	19.57
376.329	37.2
376.544	31.19
376.759	40.11
376.974	11.43
377.189	41.27
377.404	26.74
377.619	49.21
377.834	-16.47
378.049	10.27
378.264	1.94
378.478	20.34
378.693	14.92
378.908	65.1
379.123	19.37
379.338	67.62
379.553	37.78
379.767	60.26
379.982	49.99
380.197	46.31
380.412	12.79
380.626	49.21
380.841	120.9
381.056	47.27
381.271	74.98
381.485	-8.52
381.7	0.97
381.915	36.81
382.129	16.86
382.344	34.29
382.559	24.41
382.773	65.68
382.988	-11.24
383.202	37.59
383.417	17.05
383.632	130.97
383.846	23.06
384.061	60.45
384.275	11.82
384.49	70.33
384.704	69.17
384.919	53.09
385.133	32.74
385.348	52.31
385.562	-7.56
385.777	59.29
385.991	33.13
386.206	35.26
386.42	20.73
386.634	54.83
386.849	68.01
387.063	41.07
387.277	-2.32
387.492	25.19
387.706	18.79
387.92	-8.91
388.135	62.19
388.349	51.54
388.563	44.76
388.778	39.52
388.992	71.88
389.206	60.84
389.42	109.85
389.635	44.76
389.849	47.66
390.063	85.83
390.277	28.87
390.491	112.95
390.706	49.41
390.92	49.41
391.134	57.54
391.348	55.02
391.562	-4.46
391.776	19.18
391.99	-6.01
392.205	52.12
392.419	29.26
392.633	5.81
392.847	81.96
393.061	13.37
393.275	83.12
393.489	16.47
393.703	47.47
393.917	86.61
394.131	-23.06
394.345	72.07
394.559	73.62
394.773	50.37
394.986	55.02
395.2	28.09
395.414	75.17
395.628	23.25
395.842	44.17
396.056	45.53
396.27	-6.2
396.484	58.51
396.697	63.74
396.911	114.7
397.125	89.51
397.339	76.14
397.553	62
397.766	102.69
397.98	78.86
398.194	94.55
398.408	30.22
398.621	79.05
398.835	63.16
399.049	66.46
399.262	95.13
399.476	96.68
399.69	85.64
399.903	136.98
400.117	77.11
400.331	105.01
400.544	46.69
400.758	177.28
400.971	67.81
401.185	104.24
401.398	27.12
401.612	122.06
401.826	99.2
402.039	92.61
402.253	67.81
402.466	99.97
402.68	58.9
402.893	74.79
403.106	96.49
403.32	80.79
403.533	85.25
403.747	103.27
403.96	88.93
404.174	136.98
404.387	42.82
404.6	59.67
404.814	111.02
405.027	84.09
405.24	94.94
405.454	62.19
405.667	139.11
405.88	39.72
406.094	96.68
406.307	111.21
406.52	102.69
406.733	89.51
406.947	63.16
407.16	121.67
407.373	122.84
407.586	80.99
407.799	61.61
408.012	126.9
408.226	110.82
408.439	112.57
408.652	40.69
408.865	98.62
409.078	126.71
409.291	124.19
409.504	88.74
409.717	91.25
409.93	111.99
410.143	99.59
410.357	32.94
410.57	61.42
410.783	88.74
410.996	76.72
411.209	111.4
411.421	142.4
411.634	90.29
411.847	64.71
412.06	93
412.273	96.49
412.486	82.15
412.699	177.67
412.912	108.11
413.125	128.45
413.338	101.33
413.55	127.68
413.763	106.37
413.976	133.1
414.189	100.55
414.402	74.21
414.615	160.23
414.827	88.35
415.04	107.53
415.253	108.69
415.466	151.51
415.678	179.41
415.891	111.21
416.104	118.77
416.316	102.69
416.529	99.78
416.742	138.14
416.954	137.17
417.167	107.34
417.38	114.12
417.592	145.7
417.805	109.47
418.017	63.55
418.23	138.92
418.442	98.81
418.655	91.84
418.868	120.51
419.08	149.96
419.293	166.62
419.505	117.22
419.718	129.04
419.93	149.96
420.142	99.2
420.355	145.89
420.567	176.5
420.78	122.25
420.992	118.96
421.205	170.69
421.417	110.05
421.629	115.47
421.842	88.15
422.054	94.16
422.266	151.12
422.479	178.44
422.691	121.87
422.903	159.07
423.115	94.74
423.328	117.02
423.54	138.92
423.752	128.65
423.964	89.12
424.177	154.03
424.389	130.97
424.601	223.58
424.813	136.98
425.025	175.34
425.238	161.39
425.45	123.03
425.662	136.2
425.874	394.08
426.086	115.28
426.298	137.56
426.51	147.25
426.722	180.96
426.934	130.59
427.146	176.7
427.358	97.07
427.57	148.99
427.782	136.79
427.994	136.2
428.206	114.7
428.418	100.94
428.63	155.39
428.842	165.85
429.054	134.85
429.266	166.62
429.478	100.75
429.69	135.43
429.902	83.12
430.114	148.41
430.325	126.32
430.537	107.14
430.749	111.21
430.961	55.99
431.173	96.1
431.384	168.37
431.596	75.95
431.808	120.9
432.02	152.48
432.231	184.64
432.443	174.76
432.655	153.45
432.867	121.48
433.078	159.07
433.29	211.38
433.502	181.35
433.713	168.75
433.925	165.07
434.136	196.46
434.348	140.47
434.56	91.64
434.771	256.52
434.983	120.32
435.194	143.76
435.406	160.42
435.617	183.87
435.829	208.67
436.04	187.74
436.252	198.59
436.463	193.36
436.675	184.45
436.886	210.99
437.098	213.51
437.309	229.59
437.521	180.57
437.732	215.64
437.943	175.34
438.155	179.99
438.366	149.57
438.578	200.53
438.789	184.06
439	204.6
439.211	174.18
439.423	193.75
439.634	181.73
439.845	201.3
440.057	219.32
440.268	231.72
440.479	161.39
440.69	185.8
440.902	185.22
441.113	178.05
441.324	210.22
441.535	187.93
441.746	242.57
441.957	147.83
442.168	190.84
442.38	229.98
442.591	208.86
442.802	198.2
443.013	196.27
443.224	218.93
443.435	198.98
443.646	228.62
443.857	208.47
444.068	189.87
444.279	209.63
444.49	241.8
444.701	196.07
444.912	296.05
445.123	254.58
445.334	231.92
445.545	228.62
445.756	247.22
445.967	201.5
446.178	207.7
446.388	243.15
446.599	273.96
446.81	233.08
447.021	211.38
447.232	226.88
447.443	282.87
447.653	179.8
447.864	255.36
448.075	213.12
448.286	259.43
448.496	238.7
448.707	269.11
448.918	229.4
449.129	306.9
449.339	248
449.55	255.75
449.761	235.6
449.971	294.69
450.182	242.96
450.393	266.98
450.603	245.48
450.814	277.83
451.024	274.54
451.235	296.82
451.446	324.53
451.656	313.1
451.867	250.9
452.077	250.9
452.288	324.14
452.498	321.81
452.709	258.46
452.919	278.41
453.13	227.07
453.34	264.46
453.55	206.73
453.761	282.48
453.971	266.01
454.182	284.81
454.392	295.27
454.602	345.45
454.813	287.91
455.023	315.81
455.233	257.3
455.444	269.31
455.654	228.43
455.864	257.1
456.075	260.98
456.285	240.05
456.495	252.45
456.705	291.4
456.916	323.36
457.126	347.97
457.336	268.73
457.546	217.77
457.756	271.05
457.967	302.83
458.177	273.18
458.387	251.1
458.597	239.86
458.807	265.24
459.017	270.47
459.227	258.07
459.437	265.82
459.647	309.61
459.857	320.26
460.068	259.23
460.278	303.21
460.488	300.11
460.698	340.03
460.908	280.93
461.117	257.68
461.327	254.39
461.537	286.36
461.747	307.09
461.957	319.1
462.167	394.28
462.377	330.34
462.587	298.37
462.797	330.53
463.007	305.15
463.216	328.4
463.426	341.58
463.636	335.18
463.846	272.8
464.056	263.69
464.265	337.12
464.475	264.08
464.685	309.22
464.895	343.9
465.104	301.86
465.314	336.54
465.524	308.64
465.733	293.14
465.943	364.63
466.153	377.81
466.362	358.24
466.572	312.32
466.782	319.49
466.991	316.97
467.201	384.98
467.41	257.88
467.62	327.82
467.829	320.26
468.039	352.43
468.249	319.49
468.458	337.31
468.668	344.1
468.877	347.97
469.086	382.26
469.296	388.08
469.505	316.39
469.715	407.06
469.924	356.69
470.134	366.18
470.343	400.86
470.552	347.39
470.762	328.01
470.971	313.48
471.18	358.82
471.39	346.23
471.599	303.99
471.808	377.61
472.018	344.1
472.227	399.51
472.436	419.27
472.645	396.41
472.855	341.19
473.064	427.02
473.273	364.44
473.482	404.35
473.691	430.51
473.901	419.08
474.11	379.16
474.319	504.52
474.528	394.47
474.737	443.87
474.946	434.77
475.155	413.07
475.364	438.45
475.573	402.41
475.783	432.25
475.992	410.74
476.201	459.37
476.41	421.01
476.619	415.2
476.828	413.26
477.037	381.49
477.245	422.76
477.454	443.49
477.663	424.69
477.872	421.4
478.081	489.79
478.29	402.99
478.499	510.72
478.708	443.68
478.917	492.51
479.125	433.03
479.334	464.61
479.543	449.11
479.752	454.14
479.961	460.73
480.169	518.66
480.378	464.41
480.587	591.51
480.796	491.34
481.004	466.93
481.213	517.11
481.422	501.03
481.63	496.38
481.839	530.29
482.048	575.04
482.256	520.21
482.465	528.74
482.674	536.49
482.882	543.27
483.091	579.5
483.299	520.79
483.508	585.89
483.716	525.64
483.925	545.59
484.134	523.12
484.342	538.42
484.551	554.89
484.759	569.81
484.967	574.85
485.176	604.69
485.384	574.85
485.593	569.04
485.801	539.39
486.01	530.87
486.218	528.93
486.426	497.16
486.635	478.17
486.843	482.24
487.051	516.53
487.26	498.12
487.468	530.29
487.676	585.12
487.885	544.62
488.093	557.22
488.301	584.34
488.509	593.25
488.717	599.07
488.926	575.82
489.134	574.65
489.342	604.3
489.55	555.67
489.758	585.7
489.967	556.44
490.175	690.13
490.383	594.61
490.591	667.85
490.799	592.29
491.007	661.45
491.215	637.04
491.423	585.31
491.631	613.4
491.839	614.37
492.047	629.29
492.255	558.77
492.463	566.52
492.671	603.91
492.879	638.98
493.087	628.71
493.295	649.05
493.503	643.63
493.711	662.23
493.919	689.16
494.127	678.89
494.334	664.75
494.542	643.05
494.75	625.8
494.958	639.37
495.166	710.08
495.374	681.8
495.581	703.5
495.789	663.58
495.997	727.33
496.205	668.82
496.412	678.7
496.62	670.95
496.828	692.84
497.035	681.8
497.243	704.66
497.451	673.47
497.658	705.05
497.866	681.8
498.074	768.4
498.281	663.97
498.489	734.5
498.696	728.49
498.904	694.58
499.112	714.54
499.319	754.84
499.527	681.8
499.734	735.08
499.942	672.88
500.149	678.31
500.357	714.54
500.564	655.83
500.771	720.93
500.979	677.73
501.186	687.61
501.394	673.08
501.601	704.08
501.808	689.74
502.016	687.03
502.223	676.18
502.43	697.49
502.638	686.25
502.845	686.25
503.052	762.59
503.26	688.19
503.467	773.44
503.674	708.15
503.881	729.26
504.089	772.66
504.296	751.74
504.503	644.98
504.71	714.93
504.917	708.34
505.125	726.55
505.332	713.76
505.539	737.79
505.746	800.18
505.953	775.96
506.16	769.18
506.367	810.06
506.574	787.39
506.781	809.48
506.988	764.14
507.195	738.95
507.402	725.39
507.609	776.54
507.816	738.56
508.023	758.33
508.23	754.65
508.437	712.99
508.644	778.09
508.851	830.59
509.058	793.39
509.265	780.03
509.472	805.99
509.679	900.34
509.885	768.79
510.092	814.13
510.299	815.68
510.506	807.73
510.713	836.21
510.92	800.37
511.126	809.67
511.333	880.77
511.54	827.88
511.746	851.33
511.953	874.96
512.16	909.84
512.367	822.26
512.573	839.31
512.78	825.94
512.987	805.6
513.193	840.09
513.4	748.64
513.606	793.78
513.813	849.39
514.02	839.89
514.226	877.29
514.433	823.43
514.639	819.55
514.846	808.12
515.052	808.51
515.259	839.31
515.465	831.37
515.672	852.1
515.878	897.82
516.085	828.08
516.291	882.13
516.497	824.98
516.704	835.24
516.91	816.45
517.117	778.86
517.323	735.27
517.529	800.18
517.736	776.15
517.942	812.77
518.148	811.61
518.354	824.98
518.561	808.89
518.767	832.53
518.973	843.58
519.179	876.71
519.386	847.64
519.592	825.56
519.798	829.24
520.004	914.1
520.21	875.93
520.417	917.59
520.623	913.52
520.829	938.71
521.035	929.6
521.241	913.52
521.447	954.98
521.653	1037.71
521.859	933.09
522.065	932.7
522.271	1063.28
522.477	985.79
522.683	1011.55
522.889	995.47
523.095	989.66
523.301	992.37
523.507	955.56
523.713	986.95
523.919	968.35
524.125	1026.67
524.331	987.14
524.537	1062.7
524.742	1036.94
524.948	1037.71
525.154	1022.02
525.36	1140.4
525.566	1059.8
525.772	1129.55
525.977	1023.37
526.183	1071.03
526.389	1070.84
526.595	999.15
526.8	1039.65
527.006	1012.14
527.212	945.29
527.417	949.75
527.623	942
527.829	994.12
528.034	1026.09
528.24	1060.18
528.446	1029.57
528.651	1071.23
528.857	1059.22
529.062	1164.23
529.268	1102.23
529.473	1113.47
529.679	1100.48
529.884	1191.55
530.09	1143.11
530.295	1190.19
530.501	1148.15
530.706	1109.01
530.912	1115.4
531.117	1125.48
531.323	1115.98
531.528	1176.24
531.733	1182.63
531.939	1129.16
532.144	1184.18
532.35	1144.27
532.555	1200.07
532.76	1157.45
532.966	1172.36
533.171	1150.66
533.376	1165
533.581	1104.94
533.787	1142.72
533.992	1179.53
534.197	1191.74
534.402	1202.2
534.607	1169.65
534.813	1257.61
535.018	1208.21
535.223	1155.9
535.428	1200.85
535.633	1253.35
535.838	1230.68
536.043	1233.01
536.249	1313.41
536.454	1210.53
536.659	1229.71
536.864	1205.88
537.069	1203.17
537.274	1230.68
537.479	1198.33
537.684	1242.5
537.889	1175.46
538.094	1320.19
538.299	1238.63
538.504	1276.21
538.708	1265.94
538.913	1296.75
539.118	1262.26
539.323	1269.04
539.528	1251.03
539.733	1259.16
539.938	1291.33
540.142	1278.54
540.347	1264.78
540.552	1210.15
540.757	1241.14
540.962	1249.28
541.166	1209.95
541.371	1173.53
541.576	1227.58
541.781	1167.33
541.985	1247.93
542.19	1259.55
542.395	1311.47
542.599	1308.38
542.804	1307.02
543.008	1322.91
543.213	1261.29
543.418	1222.93
543.622	1331.82
543.827	1229.91
544.031	1343.06
544.236	1339.18
544.44	1301.79
544.645	1394.98
544.849	1289.39
545.054	1391.3
545.258	1390.14
545.463	1357.01
545.667	1285.51
545.872	1361.07
546.076	1331.43
546.281	1339.57
546.485	1331.82
546.689	1335.89
546.894	1343.06
547.098	1328.33
547.302	1326.2
547.507	1342.86
547.711	1359.14
547.915	1378.71
548.119	1314.38
548.324	1317.48
548.528	1397.31
548.732	1342.67
548.936	1356.81
549.141	1410.48
549.345	1340.15
549.549	1374.83
549.753	1377.74
549.957	1452.52
550.161	1415.13
550.366	1365.14
550.57	1358.17
550.774	1338.6
550.978	1347.51
551.182	1376.57
551.386	1348.87
551.59	1353.91
551.794	1371.73
551.998	1368.82
552.202	1338.99
552.406	1328.52
552.61	1385.87
552.814	1359.52
553.018	1453.1
553.222	1373.28
553.426	1354.87
553.63	1471.7
553.833	1352.55
554.037	1321.94
554.241	1372.7
554.445	1360.88
554.649	1359.33
554.853	1382.39
555.056	1420.75
555.26	1424.62
555.464	1403.7
555.668	1387.42
555.871	1427.34
556.075	1453.69
556.279	1366.89
556.483	1348.29
556.686	1307.21
556.89	1360.3
557.094	1383.36
557.297	1318.64
557.501	1392.07
557.704	1301.01
557.908	1382.19
558.112	1360.49
558.315	1418.42
558.519	1358.94
558.722	1333.56
558.926	1311.86
559.129	1256.84
559.333	1255.48
559.536	1266.14
559.74	1266.91
559.943	1257.42
560.147	1286.09
560.35	1276.41
560.553	1284.93
560.757	1248.51
560.96	1339.96
561.164	1291.91
561.367	1352.74
561.57	1259.94
561.774	1324.26
561.977	1293.07
562.18	1263.43
562.384	1351.58
562.587	1251.41
562.79	1269.04
562.993	1269.82
563.197	1325.04
563.4	1338.79
563.603	1334.34
563.806	1357.97
564.009	1264.01
564.212	1299.66
564.416	1215.57
564.619	1307.21
564.822	1191.74
565.025	1287.26
565.228	1252.77
565.431	1254.71
565.634	1166.36
565.837	1234.17
566.04	1185.54
566.243	1218.09
566.446	1118.31
566.649	1237.66
566.852	1162.68
567.055	1207.24
567.258	1207.63
567.461	1240.76
567.664	1257.03
567.867	1174.11
568.07	1155.7
568.273	1176.05
568.475	1245.02
568.678	1197.55
568.881	1167.33
569.084	1157.64
569.287	1105.72
569.489	1135.36
569.692	1186.7
569.895	1177.4
570.098	1102.81
570.3	1117.53
570.503	1061.54
570.706	1121.22
570.909	1122.18
571.111	1047.98
571.314	1063.28
571.516	1080.14
571.719	1105.72
571.922	1079.75
572.124	1077.82
572.327	1091.77
572.529	1045.65
572.732	1030.35
572.935	1082.66
573.137	1129.93
573.34	1082.47
573.542	1102.62
573.745	1072.2
573.947	1096.42
574.15	1056.31
574.352	1065.22
574.554	1114.43
574.757	1069.29
574.959	1028.02
575.162	1011.17
575.364	1026.09
575.566	1138.85
575.769	1021.63
575.971	1058.44
576.173	932.7
576.376	1046.04
576.578	1062.51
576.78	1117.15
576.982	969.12
577.185	995.28
577.387	1003.8
577.589	984.82
577.791	1037.9
577.993	1036.74
578.196	1003.22
578.398	1002.45
578.6	1039.07
578.802	939.67
579.004	963.89
579.206	1002.64
579.408	1010.2
579.61	1003.03
579.812	1028.99
580.014	975.71
580.216	1015.62
580.418	994.5
580.62	971.84
580.822	971.06
581.024	990.63
581.226	1009.04
581.428	1013.49
581.63	1062.32
581.832	969.32
582.034	1046.04
582.236	1003.61
582.438	993.92
582.64	1067.35
582.841	1045.27
583.043	1059.02
583.245	1021.44
583.447	1044.49
583.649	1025.31
583.85	1038.49
584.052	1044.69
584.254	976.49
584.456	1036.55
584.657	1003.42
584.859	1028.41
585.061	1023.76
585.262	1008.26
585.464	970.29
585.666	1047.79
585.867	939.48
586.069	1043.14
586.27	1041.39
586.472	1016.01
586.674	972.42
586.875	984.04
587.077	990.05
587.278	999.54
587.48	954.01
587.681	1116.57
587.883	985.4
588.084	931.15
588.285	926.5
588.487	971.64
588.688	956.34
588.89	935.02
589.091	872.44
589.292	896.27
589.494	869.15
589.695	873.22
589.896	807.93
590.098	820.33
590.299	882.91
590.5	847.45
590.702	839.12
590.903	930.18
591.104	929.79
591.305	924.17
591.507	938.51
591.708	945.49
591.909	927.86
592.11	973.58
592.311	925.53
592.512	894.72
592.714	879.03
592.915	883.29
593.116	928.44
593.317	884.65
593.518	923.4
593.719	900.15
593.92	932.7
594.121	939.29
594.322	918.75
594.523	936.57
594.724	868.38
594.925	868.38
595.126	925.53
595.327	910.61
595.528	910.03
595.729	923.59
595.929	874.77
596.13	904.22
596.331	903.83
596.532	919.33
596.733	975.13
596.934	958.47
597.135	952.46
597.335	934.64
597.536	879.22
597.737	915.84
597.938	872.83
598.138	930.76
598.339	897.44
598.54	914.49
598.74	925.34
598.941	906.74
599.142	943.16
599.342	920.69
599.543	906.16
599.744	895.5
599.944	892.21
600.145	900.54
600.345	918.56
600.546	952.46
600.746	949.36
600.947	986.17
601.147	943.94
601.348	973.39
601.548	888.72
601.749	915.84
601.949	930.18
602.15	926.69
602.35	907.71
602.551	942.77
602.751	847.64
602.951	891.04
603.152	855.98
603.352	906.74
603.552	923.4
603.753	929.21
603.953	944.52
604.153	930.76
604.354	889.49
604.554	904.99
604.754	913.52
604.954	897.24
605.155	933.86
605.355	900.34
605.555	949.36
605.755	956.72
605.955	932.51
606.155	920.11
606.356	906.93
606.556	966.41
606.756	941.22
606.956	878.64
607.156	977.26
607.356	881.55
607.556	878.84
607.756	895.31
607.956	931.73
608.156	919.14
608.356	880.58
608.556	918.75
608.756	891.43
608.956	905.19
609.156	863.14
609.356	862.56
609.556	868.18
609.755	900.92
609.955	873.99
610.155	895.89
610.355	889.3
610.555	875.54
610.755	889.88
610.954	817.81
611.154	852.68
611.354	923.4
611.554	830.4
611.753	884.65
611.953	837.57
612.153	892.98
612.352	867.02
612.552	819.16
612.752	827.69
612.951	856.94
613.151	875.16
613.351	829.43
613.55	836.79
613.75	877.48
613.949	849.19
614.149	868.57
614.348	842.22
614.548	837.96
614.747	743.21
614.947	811.41
615.146	798.82
615.346	850.36
615.545	835.44
615.745	834.47
615.944	850.36
616.144	820.91
616.343	855.01
616.542	810.06
616.742	811.99
616.941	818.19
617.14	763.17
617.34	801.73
617.539	808.51
617.738	807.73
617.938	861.79
618.137	813.74
618.336	787.39
618.535	823.43
618.734	811.41
618.934	792.81
619.133	815.48
619.332	821.68
619.531	791.65
619.73	834.86
619.929	826.91
620.128	817.61
620.328	857.14
620.527	815.48
620.726	800.95
620.925	818.78
621.124	795.91
621.323	815.29
621.522	761.81
621.721	766.27
621.92	766.85
622.119	802.5
622.318	760.65
622.517	755.81
622.715	779.45
622.914	743.21
623.113	758.71
623.312	747.09
623.511	787.19
623.71	776.35
623.909	737.79
624.107	787
624.306	723.26
624.505	740.11
624.704	787.97
624.902	751.93
625.101	792.04
625.3	755.61
625.499	717.45
625.697	741.28
625.896	743.6
626.095	762.4
626.293	713.38
626.492	711.83
626.69	761.23
626.889	722.87
627.088	760.07
627.286	726.16
627.485	708.15
627.683	704.27
627.882	741.47
628.08	657.77
628.279	712.6
628.477	756.2
628.676	668.43
628.874	749.8
629.073	677.53
629.271	702.14
629.469	709.89
629.668	700.78
629.866	700.2
630.065	686.25
630.263	732.36
630.461	664.94
630.66	732.75
630.858	693.62
631.056	737.4
631.254	721.71
631.453	662.81
631.651	721.71
631.849	703.3
632.047	738.56
632.245	710.86
632.444	744.76
632.642	699.62
632.84	730.04
633.038	687.61
633.236	677.34
633.434	676.18
633.632	666.88
633.83	681.99
634.028	721.51
634.227	730.04
634.425	794.75
634.623	719.38
634.821	718.8
635.019	731.2
635.216	693.62
635.414	721.9
635.612	751.93
635.81	691.87
636.008	779.06
636.206	708.15
636.404	703.5
636.602	694.39
636.8	699.43
636.997	711.63
637.195	752.32
637.393	708.92
637.591	770.53
637.789	715.31
637.986	692.65
638.184	697.88
638.382	771.5
638.58	749.8
638.777	766.46
638.975	723.65
639.173	712.6
639.37	723.84
639.568	729.46
639.765	727.71
639.963	719.77
640.161	747.28
640.358	753.87
640.556	683.54
640.753	692.07
640.951	661.26
641.148	702.72
641.346	707.95
641.543	698.07
641.741	728.68
641.938	675.79
642.136	705.43
642.333	668.04
642.531	725.58
642.728	737.4
642.925	686.83
643.123	681.99
643.32	724.03
643.517	681.6
643.715	722.68
643.912	701.75
644.109	713.76
644.306	703.5
644.504	679.28
644.701	700.01
644.898	755.81
645.095	677.53
645.293	676.18
645.49	707.37
645.687	701.36
645.884	705.63
646.081	652.54
646.278	659.52
646.475	665.33
646.672	669.4
646.87	679.86
647.067	683.35
647.264	660.48
647.461	626
647.658	609.72
647.855	673.27
648.052	668.04
648.249	578.34
648.446	638.59
648.642	624.83
648.839	618.05
649.036	610.11
649.233	577.75
649.43	587.25
649.627	602.36
649.824	607.2
650.021	603.91
650.217	590.93
650.414	617.47
650.611	644.79
650.808	647.89
651.004	631.42
651.201	626.38
651.398	674.05
651.595	624.25
651.791	610.3
651.988	665.33
652.185	603.33
652.381	644.6
652.578	574.65
652.775	583.76
652.971	617.47
653.168	625.22
653.364	642.66
653.561	554.7
653.757	600.81
653.954	616.5
654.15	595.97
654.347	688.19
654.543	622.9
654.74	561.29
654.936	586.47
655.133	630.84
655.329	588.22
655.525	620.18
655.722	614.76
655.918	568.26
656.115	613.21
656.311	535.32
656.507	516.53
656.704	499.67
656.9	537.45
657.096	487.27
657.292	495.22
657.489	553.54
657.685	566.52
657.881	552.57
658.077	516.92
658.273	577.17
658.47	626
658.666	544.62
658.862	626.77
659.058	546.56
659.254	613.21
659.45	534.94
659.646	600.81
659.842	561.87
660.038	638.01
660.234	567.49
660.43	595.19
660.626	650.22
660.822	612.82
661.018	602.94
661.214	602.75
661.41	539.2
661.606	599.26
661.802	635.3
661.998	573.3
662.194	559.93
662.39	627.55
662.586	582.99
662.781	631.42
662.977	618.25
663.173	616.89
663.369	590.54
663.564	597.13
663.76	615.73
663.956	593.64
664.152	608.95
664.347	565.35
664.543	573.1
664.739	562.25
664.934	539.97
665.13	552.18
665.326	588.99
665.521	614.37
665.717	551.79
665.912	553.92
666.108	500.26
666.304	535.9
666.499	577.17
666.695	519.24
666.89	578.92
667.086	598.1
667.281	583.18
667.477	626
667.672	579.89
667.867	575.24
668.063	562.25
668.258	535.13
668.454	553.54
668.649	609.14
668.844	592.09
669.04	590.74
669.235	546.17
669.43	547.53
669.626	534.35
669.821	552.18
670.016	540.17
670.211	546.95
670.407	541.14
670.602	547.92
670.797	549.85
670.992	593.64
671.187	551.4
671.382	570.39
671.578	537.45
671.773	555.86
671.968	491.34
672.163	541.14
672.358	571.36
672.553	506.65
672.748	559.93
672.943	623.09
673.138	526.99
673.333	587.05
673.528	529.51
673.723	564.19
673.918	549.66
674.113	504.32
674.308	625.03
674.503	574.07
674.698	579.89
674.892	543.65
675.087	574.85
675.282	556.25
675.477	498.71
675.672	567.68
675.867	529.32
676.061	524.09
676.256	506.84
676.451	545.01
676.646	539
676.84	520.99
677.035	496.57
677.23	506.65
677.424	556.25
677.619	549.85
677.814	560.12
678.008	575.04
678.203	500.84
678.397	498.32
678.592	542.49
678.787	575.82
678.981	509.17
679.176	531.25
679.37	543.65
679.565	496.77
679.759	500.64
679.954	536.1
680.148	606.24
680.342	576.01
680.537	562.25
680.731	519.82
680.926	564.39
681.12	565.16
681.314	536.68
681.509	505.87
681.703	534.35
681.897	548.11
682.092	521.57
682.286	513.62
682.48	589.19
682.674	551.21
682.869	512.27
683.063	529.12
683.257	566.13
683.451	495.61
683.645	557.22
683.839	548.3
684.034	524.67
684.228	581.44
684.422	479.52
684.616	495.02
684.81	563.22
685.004	537.84
685.198	506.46
685.392	527.57
685.586	506.65
685.78	538.62
685.974	551.6
686.168	521.37
686.362	577.56
686.556	486.89
686.75	428.96
686.944	453.95
687.138	483.4
687.331	366.96
687.525	399.7
687.719	322.78
687.913	407.06
688.107	404.93
688.301	378.97
688.494	430.7
688.688	430.31
688.882	378.39
689.076	352.23
689.269	390.01
689.463	478.75
689.657	395.63
689.85	389.63
690.044	425.86
690.238	436.71
690.431	418.88
690.625	409.39
690.818	439.42
691.012	471.39
691.205	479.72
691.399	432.44
691.593	454.92
691.786	510.72
691.98	532.22
692.173	523.31
692.366	490.76
692.56	509.94
692.753	551.4
692.947	505.49
693.14	563.61
693.333	560.12
693.527	499.09
693.72	525.44
693.914	504.91
694.107	516.53
694.3	509.36
694.493	500.26
694.687	569.81
694.88	502.39
695.073	562.64
695.266	567.49
695.46	544.62
695.653	580.08
695.846	605.46
696.039	502.97
696.232	556.25
696.425	604.69
696.618	615.15
696.812	593.06
697.005	650.02
697.198	716.48
697.391	624.06
697.584	651.96
697.777	705.82
697.97	687.22
698.163	670.95
698.356	693.62
698.549	770.53
698.742	715.31
698.935	679.47
699.127	723.84
699.32	678.5
699.513	686.25
699.706	740.5
699.899	757.55
700.092	741.66
700.285	726.36
700.477	713.18
700.67	743.6
700.863	807.34
701.056	839.7
701.248	798.24
701.441	811.22
701.634	775.38
701.826	886.97
702.019	759.68
702.212	872.64
702.404	812.19
702.597	793.01
702.79	809.86
702.982	846.48
703.175	921.66
703.367	900.73
703.56	917.59
703.752	962.73
703.945	933.47
704.137	962.54
704.33	986.95
704.522	977.84
704.715	981.33
704.907	1025.7
705.1	1033.06
705.292	1037.9
705.484	1021.44
705.677	1029.57
705.869	1038.87
706.061	1066.77
706.254	1090.41
706.446	1089.25
706.638	1079.56
706.831	1150.47
707.023	1107.46
707.215	1196
707.407	1150.08
707.599	1186.7
707.792	1219.25
707.984	1170.62
708.176	1242.5
708.368	1218.67
708.56	1263.43
708.752	1230.88
708.944	1203.36
709.136	1265.56
709.329	1261.88
709.521	1360.88
709.713	1334.53
709.905	1307.02
710.097	1349.84
710.289	1287.64
710.481	1365.92
710.672	1375.61
710.864	1368.63
711.056	1419.39
711.248	1443.03
711.44	1391.3
711.632	1415.13
711.824	1437.02
712.016	1477.13
712.207	1501.15
712.399	1453.49
712.591	1553.66
712.783	1529.63
712.975	1543
713.166	1476.94
713.358	1513.75
713.55	1594.54
713.741	1561.8
713.933	1579.81
714.125	1617.6
714.316	1572.26
714.508	1633.68
714.7	1648.79
714.891	1643.17
715.083	1677.85
715.274	1642.59
715.466	1634.06
715.657	1628.06
715.849	1602.68
716.04	1637.75
716.232	1592.8
716.423	1658.48
716.615	1608.68
716.806	1558.31
716.998	1555.98
717.189	1485.65
717.381	1411.64
717.572	1402.34
717.763	1398.08
717.955	1383.36
718.146	1359.52
718.337	1352.94
718.528	1328.33
718.72	1250.83
718.911	1320.39
719.102	1304.31
719.293	1344.61
719.485	1287.64
719.676	1286.29
719.867	1292.49
720.058	1298.88
720.249	1277.38
720.44	1353.91
720.632	1371.73
720.823	1390.33
721.014	1473.25
721.205	1523.43
721.396	1594.35
721.587	1689.28
721.778	1709.82
721.969	1745.28
722.16	1753.41
722.351	1799.72
722.542	1859.78
722.733	1873.92
722.924	1808.24
723.115	1839.44
723.305	1828.97
723.496	1864.62
723.687	1757.48
723.878	1808.24
724.069	1801.66
724.26	1762.71
724.45	1749.15
724.641	1745.86
724.832	1749.15
725.023	1733.46
725.213	1722.41
725.404	1751.67
725.595	1748.18
725.785	1720.28
725.976	1821.22
726.167	1789.26
726.357	1774.92
726.548	1864.62
726.739	1798.17
726.929	1874.7
727.12	1894.85
727.31	1948.9
727.501	1871.99
727.691	1888.07
727.882	1924.88
728.072	1927.2
728.263	1870.63
728.453	1968.67
728.644	1992.3
728.834	1961.88
729.024	1974.28
729.215	1971.38
729.405	1974.48
729.596	2038.41
729.786	2035.12
729.976	2066.31
730.167	2059.34
730.357	2070.38
730.547	2066.51
730.737	2111.07
730.928	2137.03
731.118	2152.73
731.308	2110.29
731.498	2143.23
731.688	2224.99
731.879	2201.94
732.069	2261.42
732.259	2279.44
732.449	2277.69
732.639	2410.22
732.829	2426.49
733.019	2461.56
733.209	2526.27
733.399	2504.38
733.589	2580.13
733.779	2598.34
733.969	2625.47
734.159	2671.77
734.349	2659.37
734.539	2692.31
734.729	2727.77
734.919	2778.14
735.109	2802.75
735.299	2721.57
735.488	2773.3
735.678	2751.21
735.868	2782.79
736.058	2785.89
736.248	2769.04
736.437	2747.92
736.627	2723.89
736.817	2845.76
737.007	2798.29
737.196	2809.92
737.386	2816.89
737.576	2814.37
737.765	2893.03
737.955	2881.41
738.144	2946.31
738.334	2890.51
738.524	2872.69
738.713	2886.25
738.903	2908.34
739.092	2951.35
739.282	2943.02
739.471	3019.74
739.661	2925.78
739.85	3014.32
740.04	3011.22
740.229	3036.6
740.419	3065.47
740.608	3096.47
740.797	3001.53
740.987	3084.84
741.176	3088.72
741.365	3043.77
741.555	3021.88
741.744	3139.29
741.933	3079.22
742.123	3117.2
742.312	3128.05
742.501	3175.71
742.69	3155.17
742.88	3088.72
743.069	3264.25
743.258	3142.19
743.447	3210.2
743.636	3223.37
743.825	3187.14
744.014	3184.43
744.204	3226.67
744.393	3163.12
744.582	3278.98
744.771	3215.04
744.96	3214.46
745.149	3234.42
745.338	3173.97
745.527	3259.22
745.716	3233.45
745.905	3211.36
746.094	3274.52
746.283	3298.74
746.471	3287.12
746.66	3312.3
746.849	3320.44
747.038	3310.17
747.227	3266.77
747.416	3274.13
747.604	3267.93
747.793	3283.82
747.982	3265.03
748.171	3289.25
748.359	3342.72
748.548	3294.09
748.737	3268.9
748.926	3249.14
749.114	3173.77
749.303	3245.27
749.491	3246.82
749.68	3184.62
749.869	3265.22
750.057	3219.89
750.246	3247.01
750.434	3262.9
750.623	3238.48
750.811	3231.51
751	3248.37
751.188	3243.52
751.377	3216.79
751.565	3256.31
751.754	3158.47
751.942	3208.45
752.131	3288.86
752.319	3208.45
752.507	3141.03
752.696	3254.18
752.884	3237.32
753.072	3228.8
753.261	3218.72
753.449	3193.34
753.637	3216.2
753.825	3290.22
754.014	3190.05
754.202	3212.14
754.39	3246.43
754.578	3219.3
754.766	3204.19
754.955	3168.15
755.143	3254.76
755.331	3171.25
755.519	3186.75
755.707	3184.24
755.895	3182.69
756.083	3184.24
756.271	3158.85
756.459	3173.58
756.647	3184.04
756.835	3109.06
757.023	3154.01
757.211	3105.57
757.399	3127.27
757.587	3127.27
757.775	3076.12
757.963	3080.77
758.151	3121.07
758.339	3092.79
758.526	3074.38
758.714	3099.76
758.902	2956.78
759.09	2885.28
759.278	2683.98
759.465	2470.28
759.653	2138.97
759.841	1949.1
760.028	1670.29
760.216	1464.54
760.404	1350.61
760.591	1128.97
760.779	942.19
760.967	818.19
761.154	687.22
761.342	708.15
761.529	714.54
761.717	777.31
761.905	748.64
762.092	831.18
762.28	718.41
762.467	731.2
762.655	688.77
762.842	701.36
763.029	706.01
763.217	723.45
763.404	707.56
763.592	762.01
763.779	690.9
763.966	741.86
764.154	774.02
764.341	833.69
764.528	861.98
764.716	897.44
764.903	973
765.09	1025.31
765.277	1051.66
765.465	1184.57
765.652	1252.58
765.839	1366.11
766.026	1447.87
766.213	1484.1
766.4	1570.52
766.588	1765.42
766.775	1763.68
766.962	1853
767.149	1930.88
767.336	2073.68
767.523	2038.61
767.71	2131.03
767.897	2239.72
768.084	2323.22
768.271	2381.93
768.458	2425.91
768.645	2506.7
768.832	2464.27
769.019	2586.72
769.206	2540.22
769.392	2624.11
769.579	2724.86
769.766	2685.92
769.953	2679.72
770.14	2720.02
770.327	2669.26
770.513	2791.7
770.7	2776.2
770.887	2714.2
771.073	2780.27
771.26	2758.57
771.447	2747.34
771.634	2735.32
771.82	2861.84
772.007	2712.27
772.193	2744.82
772.38	2793.64
772.567	2794.03
772.753	2750.24
772.94	2801
773.126	2817.08
773.313	2845.18
773.499	2774.27
773.686	2780.85
773.872	2767.1
774.059	2779.3
774.245	2768.07
774.432	2761.67
774.618	2655.89
774.804	2760.9
774.991	2689.21
775.177	2770.39
775.363	2756.05
775.55	2763.42
775.736	2652.79
775.922	2705.68
776.109	2717.3
776.295	2714.59
776.481	2762.45
776.667	2746.17
776.853	2720.6
777.04	2683.01
777.226	2727.38
777.412	2748.5
777.598	2683.4
777.784	2697.54
777.97	2622.76
778.156	2697.74
778.342	2691.54
778.528	2654.34
778.715	2623.53
778.901	2668.09
779.087	2686.11
779.272	2640.58
779.458	2632.83
779.644	2620.43
779.83	2594.47
780.016	2707.42
780.202	2612.88
780.388	2611.13
780.574	2538.67
780.76	2625.47
780.946	2620.43
781.131	2599.7
781.317	2575.87
781.503	2540.41
781.689	2547
781.874	2667.12
782.06	2572.77
782.246	2563.66
782.432	2542.54
782.617	2575.87
782.803	2585.94
782.989	2534.79
783.174	2556.3
783.36	2477.64
783.545	2511.35
783.731	2500.31
783.916	2435.4
784.102	2521.62
784.288	2445.67
784.473	2518.33
784.659	2452.65
784.844	2516.97
785.029	2440.44
785.215	2458.46
785.4	2407.12
785.586	2494.5
785.771	2407.89
785.956	2468.15
786.142	2409.63
786.327	2382.7
786.512	2467.37
786.698	2399.75
786.883	2315.86
787.068	2382.32
787.254	2406.15
787.439	2332.52
787.624	2385.61
787.809	2342.21
787.994	2343.95
788.18	2395.3
788.365	2286.6
788.55	2335.43
788.735	2293.58
788.92	2359.84
789.105	2288.93
789.29	2330.78
789.475	2258.9
789.66	2275.95
789.845	2229.84
790.03	2203.49
790.215	2271.49
790.4	2285.83
790.585	2308.69
790.77	2248.44
790.955	2171.33
791.14	2226.74
791.325	2307.72
791.51	2161.83
791.695	2220.54
791.879	2202.91
792.064	2181.79
792.249	2255.99
792.434	2222.09
792.618	2170.36
792.803	2236.42
792.988	2214.14
793.173	2230.42
793.357	2304.43
793.542	2193.02
793.727	2208.14
793.911	2275.95
794.096	2219.96
794.281	2256.19
794.465	2291.84
794.65	2243.01
794.834	2274.01
795.019	2305.01
795.203	2282.15
795.388	2256.77
795.572	2280.6
795.757	2249.41
795.941	2280.99
796.126	2282.92
796.31	2210.85
796.494	2279.82
796.679	2227.12
796.863	2225.96
797.048	2311.6
797.232	2262.19
797.416	2244.17
797.601	2253.09
797.785	2311.6
797.969	2294.16
798.153	2249.21
798.338	2242.04
798.522	2320.7
798.706	2291.06
798.89	2334.27
799.074	2379.22
799.258	2335.82
799.443	2301.91
799.627	2302.1
799.811	2343.37
799.995	2219.76
800.179	2268.01
800.363	2239.52
800.547	2268.39
800.731	2320.32
800.915	2196.71
801.099	2231.97
801.283	2222.86
801.467	2271.49
801.651	2231.97
801.835	2303.07
802.019	2269.94
802.202	2243.98
802.386	2231
802.57	2206.2
802.754	2220.73
802.938	2213.76
803.121	2235.84
803.305	2283.7
803.489	2255.02
803.673	2255.99
803.856	2295.71
804.04	2259.48
804.224	2264.13
804.407	2224.99
804.591	2238.75
804.775	2214.14
804.958	2272.07
805.142	2344.34
805.326	2242.24
805.509	2269.56
805.693	2279.63
805.876	2300.94
806.06	2265.68
806.243	2267.62
806.427	2314.12
806.61	2343.37
806.794	2264.52
806.977	2343.37
807.16	2268.97
807.344	2287.19
807.527	2287.96
807.71	2271.11
807.894	2273.43
808.077	2313.15
808.26	2247.08
808.444	2209.69
808.627	2284.09
808.81	2230.03
808.993	2186.82
809.177	2189.15
809.36	2218.21
809.543	2194.19
809.726	2160.28
809.909	2137.23
810.092	2100.61
810.276	2102.93
810.459	2104.87
810.642	2112.04
810.825	2110.68
811.008	2061.28
811.191	2034.35
811.374	2052.36
811.557	2047.91
811.74	2088.4
811.923	1992.3
812.106	1944.45
812.289	1939.02
812.472	1936.89
812.654	1941.73
812.837	1899.89
813.02	1877.41
813.203	1833.24
813.386	1737.72
813.569	1754.96
813.751	1710.98
813.934	1730.55
814.117	1726.48
814.3	1654.6
814.482	1643.95
814.665	1613.72
814.848	1555.02
815.03	1524.98
815.213	1553.27
815.396	1532.35
815.578	1492.82
815.761	1475
815.943	1530.99
816.126	1430.24
816.309	1385.1
816.491	1344.61
816.674	1313.22
816.856	1373.67
817.039	1361.46
817.221	1426.37
817.403	1369.6
817.586	1377.16
817.768	1390.52
817.951	1340.92
818.133	1299.85
818.315	1323.49
818.498	1395.95
818.68	1415.13
818.862	1415.9
819.045	1434.5
819.227	1407.38
819.409	1382
819.591	1428.3
819.774	1400.02
819.956	1360.69
820.138	1421.14
820.32	1428.69
820.502	1503.87
820.684	1545.72
820.866	1574.97
821.048	1623.8
821.231	1594.54
821.413	1612.17
821.595	1590.86
821.777	1589.7
821.959	1565.09
822.141	1636.58
822.323	1494.18
822.505	1455.04
822.686	1430.44
822.868	1368.44
823.05	1280.09
823.232	1224.09
823.414	1188.25
823.596	1222.93
823.778	1216.35
823.96	1277.57
824.141	1280.86
824.323	1315.54
824.505	1328.91
824.687	1422.3
824.868	1445.94
825.05	1539.71
825.232	1564.32
825.413	1619.73
825.595	1568.97
825.777	1500.57
825.958	1567.61
826.14	1526.34
826.321	1556.76
826.503	1519.75
826.685	1565.09
826.866	1570.71
827.048	1576.91
827.229	1493.6
827.411	1462.4
827.592	1469.96
827.773	1449.23
827.955	1394.4
828.136	1412.61
828.318	1386.84
828.499	1414.16
828.68	1378.32
828.862	1407.96
829.043	1446.13
829.224	1403.7
829.406	1363.01
829.587	1372.31
829.768	1373.86
829.949	1383.55
830.131	1391.88
830.312	1444.97
830.493	1379.67
830.674	1404.28
830.855	1388.78
831.036	1396.72
831.218	1405.64
831.399	1476.55
831.58	1375.22
831.761	1418.42
831.942	1446.71
832.123	1400.79
832.304	1332.98
832.485	1365.53
832.666	1379.67
832.847	1432.37
833.028	1409.9
833.209	1383.94
833.389	1359.72
833.57	1330.85
833.751	1336.86
833.932	1391.88
834.113	1363.4
834.294	1357.59
834.475	1423.65
834.655	1427.53
834.836	1427.14
835.017	1450.39
835.198	1398.27
835.378	1399.44
835.559	1462.99
835.74	1369.41
835.92	1441.87
836.101	1398.47
836.281	1443.22
836.462	1436.25
836.643	1468.02
836.823	1456.4
837.004	1488.17
837.184	1516.65
837.365	1470.35
837.545	1479.07
837.726	1425.4
837.906	1508.13
838.087	1463.18
838.267	1447.1
838.448	1407.77
838.628	1481.2
838.808	1466.47
838.989	1504.25
839.169	1425.79
839.349	1469.96
839.53	1459.89
839.71	1495.53
839.89	1427.72
840.07	1518.4
840.251	1441.29
840.431	1507.16
840.611	1440.9
840.791	1440.32
840.971	1486.04
841.151	1452.14
841.332	1439.54
841.512	1468.8
841.692	1379.29
841.872	1463.76
842.052	1438.77
842.232	1489.92
842.412	1396.92
842.592	1432.76
842.772	1481.78
842.952	1469.77
843.132	1420.17
843.312	1444.58
843.492	1398.27
843.672	1465.12
843.851	1361.27
844.031	1423.65
844.211	1427.92
844.391	1410.87
844.571	1419.78
844.751	1421.52
844.93	1442.45
845.11	1399.63
845.29	1451.94
845.47	1448.26
845.649	1403.12
845.829	1484.3
846.009	1407.19
846.188	1429.66
846.368	1434.7
846.547	1422.3
846.727	1496.89
846.907	1396.92
847.086	1426.56
847.266	1443.8
847.445	1418.81
847.625	1408.93
847.804	1396.14
847.984	1399.05
848.163	1354.68
848.343	1388.01
848.522	1391.49
848.701	1390.14
848.881	1400.6
849.06	1388.39
849.239	1386.26
849.419	1376.38
849.598	1293.84
849.777	1324.26
849.957	1302.76
850.136	1264.2
850.315	1243.47
850.494	1262.07
850.674	1268.08
850.853	1338.99
851.032	1290.36
851.211	1345.38
851.39	1306.44
851.569	1259.55
851.748	1248.89
851.927	1288.03
852.107	1259.74
852.286	1255.48
852.465	1228.94
852.644	1268.85
852.823	1278.93
853.002	1266.33
853.181	1281.83
853.359	1288.23
853.538	1212.86
853.717	1273.31
853.896	1166.75
854.075	1137.49
854.254	1127.42
854.433	1099.32
854.611	1150.86
854.79	1057.67
854.969	1128
855.148	1165.39
855.327	1114.82
855.505	1155.31
855.684	1132.26
855.863	1144.85
856.041	1126.25
856.22	1197.36
856.399	1144.46
856.577	1238.24
856.756	1225.45
856.934	1311.47
857.113	1322.32
857.291	1266.72
857.47	1210.92
857.648	1251.22
857.827	1214.99
858.005	1257.61
858.184	1200.26
858.362	1307.02
858.541	1224.29
858.719	1228.36
858.898	1225.26
859.076	1193.68
859.254	1251.41
859.433	1197.94
859.611	1188.64
859.789	1209.95
859.967	1238.04
860.146	1277.57
860.324	1159.77
860.502	1204.72
860.68	1134
860.859	1179.15
861.037	1178.76
861.215	1195.61
861.393	1177.79
861.571	1175.85
861.749	1156.09
861.927	1195.61
862.105	1172.75
862.283	1163.84
862.461	1152.41
862.639	1119.28
862.817	1140.78
862.995	1156.67
863.173	1180.89
863.351	1158.41
863.529	1178.37
863.707	1193.1
863.885	1145.63
864.063	1062.32
864.241	1130.52
864.418	1188.83
864.596	1118.89
864.774	1097.38
864.952	1124.51
865.129	1136.52
865.307	1089.05
865.485	1043.33
865.663	1147.76
865.84	1046.62
866.018	1066.38
866.196	951.3
866.373	965.83
866.551	979.59
866.728	908.87
866.906	959.44
867.084	980.75
867.261	1019.3
867.439	990.82
867.616	1045.65
867.794	1032.67
867.971	1040.62
868.149	1032.87
868.326	1065.03
868.503	1076.07
868.681	1019.69
868.858	1047.4
869.035	1016.2
869.213	1052.63
869.39	1052.24
869.567	1079.17
869.745	1005.74
869.922	1076.27
870.099	1055.92
870.276	1073.55
870.454	1065.61
870.631	1066.97
870.808	1042.94
870.985	1084.6
871.162	1073.36
871.339	1034.22
871.517	1021.63
871.694	1024.73
871.871	1046.04
872.048	1017.17
872.225	1031.7
872.402	1032.09
872.579	1000.9
872.756	1040.62
872.933	992.18
873.11	988.5
873.287	995.28
873.463	989.08
873.64	983.46
873.817	1019.11
873.994	1014.46
874.171	979.2
874.348	1002.25
874.524	930.18
874.701	993.15
874.878	913.32
875.055	980.55
875.231	984.82
875.408	999.54
875.585	933.28
875.762	957.69
875.938	944.91
876.115	929.21
876.291	984.62
876.468	943.94
876.645	902.09
876.821	918.75
876.998	921.85
877.174	940.45
877.351	916.81
877.527	912.16
877.704	953.82
877.88	938.71
878.057	945.1
878.233	951.88
878.409	923.59
878.586	939.67
878.762	903.44
878.938	911
879.115	834.47
879.291	929.41
879.467	857.53
879.644	900.54
879.82	914.87
879.996	872.44
880.172	843.38
880.349	894.53
880.525	917.97
880.701	856.75
880.877	871.86
881.053	878.06
881.229	886.97
881.405	898.21
881.581	838.73
881.757	879.81
881.933	882.71
882.109	886.2
882.285	865.28
882.461	821.88
882.637	868.38
882.813	848.03
882.989	869.34
883.165	899.76
883.341	849
883.517	882.91
883.693	878.26
883.869	874.77
884.044	869.73
884.22	886.39
884.396	920.88
884.572	917.39
884.747	886.78
884.923	885.42
885.099	917.97
885.275	941.61
885.45	871.28
885.626	845.71
885.801	845.13
885.977	843.77
886.153	805.02
886.328	872.64
886.504	844.74
886.679	896.08
886.855	838.34
887.03	875.74
887.206	918.17
887.381	884.65
887.557	894.53
887.732	868.57
887.908	900.92
888.083	894.72
888.258	864.5
888.434	836.6
888.609	849
888.784	896.08
888.96	878.26
889.135	829.82
889.31	816.26
889.485	872.44
889.661	851.33
889.836	905.96
890.011	856.36
890.186	841.25
890.361	831.37
890.537	874.96
890.712	880.58
890.887	847.45
891.062	862.18
891.237	912.74
891.412	822.07
891.587	857.91
891.762	885.81
891.937	907.71
892.112	839.89
892.287	854.04
892.462	789.71
892.637	788.74
892.812	767.82
892.987	769.76
893.161	796.3
893.336	776.93
893.511	786.42
893.686	771.7
893.861	756.2
894.035	783.51
894.21	781.77
894.385	700.59
894.56	756.2
894.734	707.76
894.909	713.38
895.084	706.79
895.258	701.56
895.433	733.91
895.608	662.03
895.782	663.78
895.957	661.26
896.131	653.32
896.306	582.99
896.48	651.77
896.655	633.75
896.829	569.04
897.004	551.6
897.178	566.32
897.353	553.34
897.527	620.96
897.701	578.34
897.876	520.99
898.05	607.59
898.224	593.06
898.399	614.37
898.573	547.92
898.747	480.49
898.921	562.45
899.096	437.87
899.27	461.51
899.444	491.15
899.618	466.35
899.792	488.44
899.967	493.09
900.141	517.5
900.315	479.52
900.489	491.92
900.663	499.48
900.837	514.4
901.011	467.71
901.185	546.17
901.359	492.89
901.533	504.13
901.707	521.37
901.881	518.27
902.055	453.76
902.229	482.43
902.403	534.35
902.576	494.64
902.75	518.86
902.924	622.32
903.098	542.88
903.272	588.99
903.446	632.58
903.619	598.1
903.793	633.55
903.967	585.5
904.14	654.48
904.314	640.14
904.488	626.77
904.661	624.64
904.835	625.22
905.009	653.12
905.182	681.41
905.356	666.49
905.529	644.02
905.703	595
905.876	601.78
906.05	571.36
906.223	608.95
906.397	534.94
906.57	513.04
906.744	474.29
906.917	506.26
907.09	514.98
907.264	500.84
907.437	457.44
907.61	431.28
907.784	472.16
907.957	500.45
908.13	421.98
908.304	499.67
908.477	445.23
908.65	450.46
908.823	425.86
908.996	503.55
909.17	430.31
909.343	436.9
909.516	423.53
909.689	435.54
909.862	414.43
910.035	421.59
910.208	398.15
910.381	398.93
910.554	477.59
910.727	405.32
910.9	432.06
911.073	414.81
911.246	485.92
911.419	501.81
911.592	459.57
911.765	416.56
911.938	400.28
912.11	432.06
912.283	446.2
912.456	509.36
912.629	434.19
912.802	398.93
912.974	385.56
913.147	343.13
913.32	341.58
913.493	351.65
913.665	373.54
913.838	349.13
914.01	346.61
914.183	384.78
914.356	356.3
914.528	412.1
914.701	428.38
914.873	417.33
915.046	393.69
915.218	346.81
915.391	298.56
915.563	308.06
915.736	374.71
915.908	377.81
916.081	367.93
916.253	402.03
916.425	373.35
916.598	360.76
916.77	379.55
916.942	356.11
917.115	306.12
917.287	363.66
917.459	349.71
917.632	309.03
917.804	237.92
917.976	342.16
918.148	335.38
918.32	362.31
918.493	379.94
918.665	407.84
918.837	393.11
919.009	447.75
919.181	430.7
919.353	402.61
919.525	393.69
919.697	402.41
919.869	409.78
920.041	436.9
920.213	485.72
920.385	439.22
920.557	413.46
920.729	415.59
920.901	417.33
921.073	399.12
921.244	384.98
921.416	442.71
921.588	427.21
921.76	377.61
921.932	447.94
922.103	402.22
922.275	389.63
922.447	446.78
922.619	335.38
922.79	389.82
922.962	349.52
923.134	388.08
923.305	347
923.477	310.77
923.648	340.8
923.82	367.93
923.991	314.26
924.163	301.47
924.335	348.16
924.506	314.65
924.677	370.25
924.849	322.78
925.02	340.22
925.192	350.49
925.363	318.33
925.535	358.04
925.706	293.14
925.877	374.13
926.049	311.16
926.22	340.61
926.391	350.1
926.562	353.98
926.734	310
926.905	353.78
927.076	286.94
927.247	307.67
927.419	278.22
927.59	266.98
927.761	301.86
927.932	297.01
928.103	288.3
928.274	245.28
928.445	218.35
928.616	254.39
928.787	207.31
928.958	285.97
929.129	233.47
929.3	254.2
929.471	196.07
929.642	153.06
929.813	148.02
929.984	199.37
930.155	146.09
930.326	188.52
930.496	149.19
930.667	115.28
930.838	138.34
931.009	104.24
931.18	137.56
931.35	116.44
931.521	110.05
931.692	93.97
931.863	75.95
932.033	106.17
932.204	125.16
932.374	117.6
932.545	69.75
932.716	99.78
932.886	103.85
933.057	44.17
933.227	54.64
933.398	121.09
933.568	58.9
933.739	8.72
933.909	27.51
934.08	66.07
934.25	1.36
934.421	14.92
934.591	80.41
934.761	27.12
934.932	-5.62
935.102	48.63
935.272	20.54
935.443	47.47
935.613	11.82
935.783	42.24
935.953	7.17
936.123	150.93
936.294	17.82
936.464	16.47
936.634	49.02
936.804	-8.52
936.974	7.56
937.144	50.18
937.314	29.84
937.484	23.83
937.655	21.12
937.825	73.04
937.995	8.91
938.165	82.73
938.334	22.47
938.504	26.54
938.674	32.55
938.844	40.69
939.014	90.67
939.184	68.59
939.354	126.71
939.524	84.47
939.694	76.34
939.863	70.14
940.033	141.05
940.203	111.6
940.373	106.17
940.542	110.05
940.712	79.44
940.882	89.12
941.051	125.55
941.221	88.35
941.391	118.19
941.56	70.72
941.73	30.42
941.899	158.87
942.069	95.52
942.238	96.68
942.408	69.17
942.577	103.85
942.747	73.04
942.916	20.92
943.086	41.07
943.255	96.1
943.425	55.02
943.594	51.92
943.763	14.34
943.933	40.69
944.102	8.52
944.271	49.6
944.441	70.14
944.61	43.01
944.779	64.32
944.948	139.5
945.117	41.46
945.287	61.03
945.456	4.84
945.625	22.47
945.794	70.91
945.963	21.7
946.132	95.13
946.301	27.71
946.47	82.15
946.639	9.49
946.808	55.8
946.977	62.19
947.146	98.81
947.315	62.77
947.484	62.39
947.653	38.36
947.822	61.61
947.991	10.85
948.16	96.87
948.329	102.69
948.498	47.27
948.666	33.71
948.835	74.01
949.004	19.18
949.173	26.93
949.341	55.41
949.51	68.01
949.679	90.48
949.847	94.74
950.016	144.73
950.185	122.84
950.353	30.22
950.522	54.44
950.69	69.56
950.859	28.48
951.028	84.47
951.196	69.94
951.365	55.8
951.533	89.51
951.701	65.49
951.87	74.01
952.038	31
952.207	45.34
952.375	94.94
952.543	63.16
952.712	36.62
952.88	22.28
953.048	128.26
953.217	80.99
953.385	62.39
953.553	88.15
953.721	30.61
953.89	59.09
954.058	30.42
954.226	51.54
954.394	52.51
954.562	27.32
954.73	73.82
954.898	12.79
955.067	96.29
955.235	50.76
955.403	79.24
955.571	116.25
955.739	77.5
955.907	18.99
956.075	34.87
956.243	24.02
956.41	52.51
956.578	19.57
956.746	18.21
956.914	24.22
957.082	75.76
957.25	64.91
957.418	32.94
957.585	65.68
957.753	109.27
957.921	48.05
958.089	69.75
958.256	72.46
958.424	82.34
958.592	60.64
958.759	48.44
958.927	106.75
959.095	43.98
959.262	58.32
959.43	72.85
959.597	46.69
959.765	58.12
959.932	43.79
960.1	91.64
960.267	63.36
960.435	66.26
960.602	86.02
960.77	67.81
960.937	41.27
961.104	74.21
961.272	37.2
961.439	52.12
961.606	69.75
961.774	94.35
961.941	62.77
962.108	79.24
962.275	69.56
962.443	80.6
962.61	51.54
962.777	105.01
962.944	101.72
963.111	87.77
963.278	87.96
963.446	76.14
963.613	43.4
963.78	80.99
963.947	78.47
964.114	63.16
964.281	158.29
964.448	87.77
964.615	66.07
964.782	92.8
964.949	124.77
965.116	59.67
965.282	107.53
965.449	71.49
965.616	70.72
965.783	88.54
965.95	97.65
966.117	20.92
966.283	90.48
966.45	81.57
966.617	87.38
966.784	97.07
966.95	118.96
967.117	98.42
967.284	53.67
967.45	51.54
967.617	137.95
967.784	97.26
967.95	132.33
968.117	76.72
968.283	137.75
968.45	153.06
968.616	102.49
968.783	156.74
968.949	115.09
969.116	126.52
969.282	86.22
969.449	107.34
969.615	64.13
969.781	61.81
969.948	91.84
970.114	71.11
970.28	114.12
970.447	102.69
970.613	120.32
970.779	108.3
970.945	88.35
971.112	116.25
971.278	85.64
971.444	87.77
971.61	143.57
971.776	82.92
971.942	111.79
972.108	97.84
972.275	96.29
972.441	109.66
972.607	155.39
972.773	76.34
972.939	94.55
973.105	100.75
973.271	46.11
973.437	84.09
973.602	74.4
973.768	118.19
973.934	62
974.1	118.57
974.266	38.75
974.432	125.16
974.598	83.31
974.763	103.65
974.929	78.08
975.095	153.25
975.261	69.94
975.426	62.39
975.592	90.29
975.758	164.3
975.923	30.42
976.089	60.64
976.255	109.08
976.42	89.32
976.586	121.29
976.751	113.15
976.917	146.09
977.082	102.3
977.248	44.17
977.413	41.85
977.579	67.81
977.744	82.15
977.91	77.89
978.075	68.59
978.24	108.5
978.406	102.88
978.571	64.91
978.736	58.71
978.902	122.45
979.067	42.82
979.232	33.13
979.397	85.83
979.563	134.65
979.728	71.88
979.893	72.27
980.058	71.69
980.223	119.54
980.388	86.99
980.554	93.19
980.719	70.14
980.884	98.04
981.049	111.21
981.214	71.3
981.379	80.6
981.544	79.44
981.709	97.26
981.874	74.01
982.039	76.14
982.204	93.19
982.368	76.14
982.533	57.16
982.698	124.77
982.863	115.09
983.028	52.89
983.193	115.47
983.357	89.12
983.522	85.64
983.687	85.83
983.852	39.91
984.016	77.11
984.181	97.45
984.346	95.13
984.51	104.04
984.675	93.97
984.839	94.55
985.004	96.87
985.168	115.86
985.333	76.72
985.498	84.09
985.662	125.74
985.827	115.28
985.991	88.54
986.155	86.8
986.32	110.63
986.484	121.87
986.649	97.26
986.813	37.97
986.977	90.29
987.142	100.55
987.306	53.67
987.47	63.55
987.634	67.42
987.799	73.24
987.963	84.67
988.127	81.57
988.291	155.39
988.455	89.7
988.62	98.23
988.784	115.28
988.948	115.86
989.112	80.6
989.276	93.97
989.44	98.23
989.604	80.79
989.768	62.58
989.932	155.77
990.096	12.01
990.26	49.99
990.424	52.51
990.588	94.74
990.752	152.48
990.915	93.19
991.079	71.69
991.243	62.97
991.407	112.18
991.571	71.88
991.734	97.45
991.898	109.66
992.062	161.97
992.226	82.15
992.389	42.43
992.553	9.11
992.717	38.56
992.88	64.32
993.044	69.56
993.207	86.22
993.371	106.17
993.535	80.79
993.698	71.49
993.862	100.55
994.025	123.42
994.189	70.72
994.352	103.65
994.515	56.96
994.679	112.57
994.842	69.75
995.006	113.15
995.169	49.41
995.332	60.45
995.496	68.39
995.659	19.57
995.822	69.94
995.985	38.56
996.149	139.69
996.312	68.39
996.475	124.19
996.638	62
996.801	94.55
996.964	128.26
997.128	53.47
997.291	72.46
997.454	61.42
997.617	12.4
997.78	92.61
997.943	37.97
998.106	92.42
998.269	38.75
998.432	62.19
998.595	65.1
998.758	24.02
998.92	39.14
999.083	33.52
999.246	54.64
999.409	-9.49
999.572	0.39
999.735	46.11
999.897	85.64
1000.06	46.11
1000.223	55.22
1000.386	97.45
1000.548	75.37
1000.711	54.64
1000.874	62
1001.036	23.83
1001.199	82.54
1001.361	28.67
1001.524	65.68
1001.687	78.86
1001.849	28.67
1002.012	59.09
1002.174	69.56
1002.337	67.81
1002.499	31.97
1002.661	84.28
1002.824	11.24
1002.986	48.63
1003.149	44.37
1003.311	21.7
1003.473	105.98
1003.636	35.65
1003.798	74.59
1003.96	83.51
1004.123	68.01
1004.285	24.99
1004.447	47.86
1004.609	51.15
1004.771	101.91
1004.933	14.72
1005.096	36.81
1005.258	29.26
1005.42	32.16
1005.582	86.41
1005.744	61.61
1005.906	-3.1
1006.068	67.81
1006.23	23.64
1006.392	-20.15
1006.554	50.37
1006.716	91.84
1006.878	75.17
1007.04	12.01
1007.202	49.02
1007.363	50.96
1007.525	21.7
1007.687	54.83
1007.849	87.19
1008.011	5.42
1008.172	32.74
1008.334	49.79
1008.496	53.67
1008.658	-6.59
1008.819	2.91
1008.981	15.11
1009.143	15.89
1009.304	44.37
1009.466	47.66
1009.627	58.12
1009.789	125.16
1009.95	43.4
1010.112	7.36
1010.273	57.74
1010.435	15.5
1010.596	32.16
1010.758	27.32
1010.919	21.12
1011.081	11.24
1011.242	33.32
1011.403	36.23
1011.565	35.26
1011.726	59.29
1011.887	15.31
1012.049	24.22
1012.21	43.98
1012.371	101.52
1012.532	-23.44
1012.693	44.95
1012.855	12.01
1013.016	49.6
1013.177	51.15
1013.338	28.87
1013.499	88.35
1013.66	63.16
1013.821	58.51
1013.982	36.42
1014.143	43.01
1014.304	1.36
1014.465	53.28
1014.626	67.04
1014.787	45.92
1014.948	120.12
1015.109	-12.4
1015.27	62.39
1015.431	21.31
1015.592	8.72
1015.752	100.94
1015.913	20.34
1016.074	46.89
1016.235	36.62
1016.395	36.81
1016.556	28.09
1016.717	20.92
1016.877	63.36
1017.038	-9.69
1017.199	34.1
1017.359	23.83
1017.52	45.34
1017.681	-6.97
1017.841	44.37
1018.002	21.51
1018.162	-5.42
1018.323	71.3
1018.483	68.01
1018.644	18.99
1018.804	8.33
1018.964	-16.27
1019.125	20.34
1019.285	59.48
1019.446	24.99
1019.606	-11.04
1019.766	-37.97
1019.926	46.69
1020.087	20.73
1020.247	-1.36
1020.407	36.62
1020.567	72.27
1020.728	38.36
1020.888	2.32
1021.048	17.44
1021.208	20.15
1021.368	3.87
1021.528	81.57
1021.688	60.06
1021.848	48.24
1022.008	32.94
1022.168	6.2
1022.328	19.57
1022.488	26.93
1022.648	14.53
1022.808	21.31
1022.968	31.19
1023.128	13.17
1023.288	31.58
1023.448	54.25
1023.608	41.85
1023.767	30.42
1023.927	4.26
1024.087	-8.14
1024.247	-10.27
1024.406	15.31
1024.566	-31.97
1024.726	3.87
1024.885	29.06
1025.045	9.88
1025.205	23.64
1025.364	11.43
1025.524	35.46
1025.683	-6.59
1025.843	34.1
1026.003	12.59
1026.162	79.63
1026.321	52.89
1026.481	38.75
1026.64	11.43
1026.8	68.01
1026.959	28.09
1027.119	36.04
1027.278	8.14
1027.437	15.11
1027.597	31.77
1027.756	31.77
1027.915	47.47
1028.074	35.84
1028.234	9.88
1028.393	30.03
1028.552	21.7
1028.711	-56.19
1028.87	59.87
1029.03	-8.52
1029.189	7.36
1029.348	-45.53
1029.507	13.95
1029.666	3.68
1029.825	-37.01
1029.984	1.36
1030.143	45.72
1030.302	-7.36
1030.461	-37.01
1030.62	15.69
1030.779	58.32
1030.938	2.91
1031.097	-0
1031.255	20.54
1031.414	63.36
1031.573	51.73
1031.732	-13.76
1031.891	26.35
1032.049	76.14
1032.208	43.59
1032.367	-0
1032.525	-5.81
1032.684	13.95
1032.843	25.57
1033.001	-26.74
1033.16	142.4
1033.319	53.86
1033.477	39.33
1033.636	-8.72
1033.794	-19.18
1033.953	36.81
1034.111	35.84
1034.27	8.33
1034.428	36.42
1034.587	-38.56
1034.745	37.39
1034.903	21.31
1035.062	35.84
1035.22	-30.81
1035.378	23.83
1035.537	4.26
1035.695	33.71
1035.853	50.76
1036.011	39.33
1036.17	14.14
1036.328	-22.86
1036.486	50.76
1036.644	-6.39
1036.802	-57.74
1036.96	-22.28
1037.119	-0.39
1037.277	10.27
1037.435	-21.12
1037.593	-2.71
1037.751	16.27
1037.909	33.71
1038.067	33.71
