Data from oakcork_FLMT105791__192__17-32-05-057.txt Node

Date: Mon Mar 20 17:32:05 GMT 2023
User: antho
Spectrometer: FLMT10579
Trigger mode: 0
Integration Time (sec): 1.000000E-1
Scans to average: 10
Electric dark correction enabled: true
Nonlinearity correction enabled: false
Boxcar width: 0
XAxis mode: Wavelengths
Number of Pixels in Spectrum: 3648
>>>>>Begin Spectral Data<<<<<
345.248	-154.01
345.464	-154.01
345.681	-154.01
345.898	-192.37
346.114	-171.64
346.331	-38.93
346.548	9.51
346.764	0.4
346.981	0.79
347.197	-8.51
347.414	8.73
347.631	-5.99
347.847	55.04
348.064	8.35
348.28	26.17
348.497	-50.36
348.713	-5.22
348.93	39.15
349.146	10.28
349.363	-8.12
349.579	9.51
349.796	3.89
350.012	0.21
350.229	26.37
350.445	3.89
350.661	-20.71
350.878	8.15
351.094	3.5
351.311	25.2
351.527	-1.53
351.743	6.02
351.96	23.07
352.176	28.5
352.392	23.85
352.609	12.03
352.825	-15.1
353.041	11.25
353.257	-6.18
353.474	-0.76
353.69	-11.41
353.906	4.86
354.122	-14.13
354.339	44.38
354.555	-12.19
354.771	-2.5
354.987	25.4
355.203	69.77
355.42	21.72
355.636	-8.51
355.852	1.57
356.068	13.38
356.284	-27.11
356.5	64.53
356.716	9.12
356.932	6.41
357.148	31.02
357.364	-4.05
357.58	41.28
357.796	63.76
358.012	29.85
358.228	20.94
358.444	-43.19
358.66	49.03
358.876	16.87
359.092	-27.5
359.308	15.13
359.524	38.38
359.74	9.7
359.956	-2.5
360.172	5.25
360.388	10.67
360.604	-8.12
360.819	92.05
361.035	30.24
361.251	31.6
361.467	-17.81
361.683	36.25
361.898	27.33
362.114	56.59
362.33	3.5
362.546	50.97
362.762	0.98
362.977	9.51
363.193	4.67
363.409	52.13
363.624	-26.14
363.84	-18.78
364.056	8.35
364.271	25.4
364.487	5.44
364.703	-0.95
364.918	-37.38
365.134	29.66
365.35	18.03
365.565	103.86
365.781	16.1
365.996	33.92
366.212	66.47
366.427	23.07
366.643	11.64
366.858	-3.08
367.074	-26.91
367.289	54.65
367.505	96.7
367.72	-11.03
367.936	-14.51
368.151	38.38
368.367	48.07
368.582	17.65
368.798	8.93
369.013	50.78
369.228	7.96
369.444	6.22
369.659	61.24
369.874	25.01
370.09	54.65
370.305	-57.14
370.52	-12.77
370.736	58.14
370.951	20.36
371.166	35.28
371.381	72.67
371.597	49.03
371.812	-19.36
372.027	-20.52
372.242	10.28
372.458	70.93
372.673	0.6
372.888	8.73
373.103	23.46
373.318	82.94
373.533	34.12
373.749	22.1
373.964	14.35
374.179	50.78
374.394	-9.67
374.609	53.49
374.824	-23.62
375.039	61.43
375.254	-7.93
375.469	71.7
375.684	27.14
375.899	40.7
376.114	14.55
376.329	40.32
376.544	62.4
376.759	52.91
376.974	-20.91
377.189	17.45
377.404	23.46
377.619	52.72
377.834	-13.35
378.049	-2.5
378.264	-9.48
378.478	27.33
378.693	10.87
378.908	33.73
379.123	-10.45
379.338	58.53
379.553	62.79
379.767	15.71
379.982	25.78
380.197	35.67
380.412	13.77
380.626	53.3
380.841	59.11
381.056	9.7
381.271	75.58
381.485	-1.15
381.7	-29.05
381.915	25.2
382.129	-5.41
382.344	31.4
382.559	14.93
382.773	27.53
382.988	-37.76
383.202	40.32
383.417	0.98
383.632	120.72
383.846	22.68
384.061	39.93
384.275	18.23
384.49	10.67
384.704	46.32
384.919	28.69
385.133	32.18
385.348	37.6
385.562	-14.13
385.777	60.27
385.991	-1.34
386.206	8.35
386.42	-6.18
386.634	44.97
386.849	39.54
387.063	29.47
387.277	-10.64
387.492	1.18
387.706	-35.83
387.92	-20.33
388.135	47.87
388.349	31.02
388.563	26.17
388.778	40.12
388.992	28.88
389.206	34.5
389.42	65.31
389.635	26.75
389.849	45.55
390.063	43.61
390.277	55.62
390.491	79.26
390.706	32.76
390.92	63.95
391.134	33.15
391.348	31.98
391.562	-5.99
391.776	5.83
391.99	-8.7
392.205	31.4
392.419	-4.44
392.633	17.07
392.847	55.62
393.061	18.81
393.275	62.4
393.489	32.18
393.703	35.08
393.917	73.83
394.131	23.65
394.345	54.07
394.559	52.52
394.773	24.04
394.986	31.6
395.2	39.15
395.414	59.3
395.628	-3.28
395.842	27.92
396.056	1.18
396.27	-12.19
396.484	37.02
396.697	43.8
396.911	73.06
397.125	49.42
397.339	46.32
397.553	44
397.766	113.55
397.98	72.09
398.194	73.06
398.408	25.98
398.621	57.17
398.835	52.33
399.049	19
399.262	81.78
399.476	55.82
399.69	52.72
399.903	136.22
400.117	35.67
400.331	79.07
400.544	32.95
400.758	148.04
400.971	43.8
401.185	50.58
401.398	21.33
401.612	96.5
401.826	73.64
402.039	77.32
402.253	22.49
402.466	43.22
402.68	13.38
402.893	41.09
403.106	51.55
403.32	13.38
403.533	80.03
403.747	44.58
403.96	46.32
404.174	77.13
404.387	0.79
404.6	40.12
404.814	49.62
405.027	37.6
405.24	66.08
405.454	37.6
405.667	70.93
405.88	10.28
406.094	66.67
406.307	69.77
406.52	58.72
406.733	32.37
406.947	-9.67
407.16	110.65
407.373	63.57
407.586	21.33
407.799	16.48
408.012	101.93
408.226	67.25
408.439	92.24
408.652	3.12
408.865	38.57
409.078	96.89
409.291	55.04
409.504	16.68
409.717	40.32
409.93	56.98
410.143	42.64
410.357	10.48
410.57	26.37
410.783	34.12
410.996	52.72
411.209	38.77
411.421	92.82
411.634	59.69
411.847	29.85
412.06	63.37
412.273	60.08
412.486	55.04
412.699	134.86
412.912	42.45
413.125	70.35
413.338	32.57
413.55	95.34
413.763	65.5
413.976	58.92
414.189	46.32
414.402	32.57
414.615	85.26
414.827	32.57
415.04	87.2
415.253	65.12
415.466	84.1
415.678	136.41
415.891	40.7
416.104	50.97
416.316	31.02
416.529	36.05
416.742	47.29
416.954	70.93
417.167	89.91
417.38	42.83
417.592	90.5
417.805	25.01
418.017	7.77
418.23	99.41
418.442	62.21
418.655	56.2
418.868	71.12
419.08	91.85
419.293	85.65
419.505	42.83
419.718	85.26
419.93	94.18
420.142	56.2
420.355	101.54
420.567	97.66
420.78	52.91
420.992	50
421.205	123.24
421.417	26.95
421.629	32.18
421.842	31.02
422.054	19.2
422.266	96.31
422.479	124.21
422.691	36.63
422.903	72.09
423.115	46.9
423.328	64.73
423.54	83.71
423.752	62.98
423.964	53.49
424.177	65.89
424.389	59.69
424.601	161.21
424.813	76.55
425.025	95.34
425.238	96.5
425.45	38.57
425.662	61.24
425.874	355.35
426.086	74.42
426.298	87.59
426.51	60.08
426.722	89.14
426.934	40.12
427.146	88.56
427.358	31.79
427.57	94.76
427.782	55.23
427.994	78.48
428.206	48.45
428.418	23.85
428.63	84.1
428.842	85.26
429.054	97.47
429.266	112
429.478	37.8
429.69	57.37
429.902	49.23
430.114	68.6
430.325	98.44
430.537	52.33
430.749	73.45
430.961	22.1
431.173	69.77
431.384	79.45
431.596	-33.5
431.808	59.88
432.02	87.2
432.231	89.14
432.443	116.65
432.655	92.05
432.867	57.17
433.078	84.1
433.29	155.6
433.502	113.94
433.713	115.49
433.925	97.28
434.136	113.36
434.348	38.57
434.56	29.85
434.771	173.81
434.983	35.67
435.194	30.63
435.406	60.66
435.617	102.7
435.829	160.83
436.04	116.85
436.252	116.46
436.463	125.37
436.675	131.76
436.886	94.76
437.098	90.88
437.309	133.51
437.521	95.92
437.732	98.05
437.943	81.39
438.155	86.23
438.366	43.03
438.578	147.07
438.789	99.41
439	106
439.211	78.68
439.423	114.71
439.634	109.48
439.845	128.66
440.057	112.39
440.268	123.24
440.479	90.3
440.69	110.45
440.902	89.33
441.113	94.76
441.324	77.71
441.535	105.41
441.746	137.19
441.957	62.98
442.168	89.53
442.38	110.65
442.591	114.13
442.802	81.39
443.013	48.07
443.224	119.17
443.435	101.54
443.646	89.33
443.857	71.9
444.068	71.51
444.279	74.03
444.49	153.46
444.701	118.59
444.912	196.28
445.123	127.89
445.334	134.09
445.545	128.08
445.756	104.06
445.967	66.86
446.178	108.71
446.388	123.43
446.599	124.79
446.81	134.09
447.021	90.5
447.232	139.51
447.443	149.59
447.653	77.32
447.864	146.1
448.075	114.71
448.286	160.63
448.496	129.83
448.707	145.91
448.918	116.46
449.129	196.67
449.339	120.33
449.55	157.92
449.761	89.14
449.971	142.23
450.182	134.86
450.393	147.07
450.603	109.48
450.814	156.56
451.024	136.03
451.235	174.97
451.446	175.74
451.656	181.36
451.867	104.25
452.077	146.88
452.288	177.1
452.498	167.8
452.709	123.63
452.919	170.51
453.13	107.35
453.34	157.53
453.55	72.48
453.761	174.19
453.971	146.1
454.182	177.1
454.392	154.43
454.602	205.58
454.813	169.16
455.023	164.51
455.233	90.11
455.444	148.43
455.654	72.67
455.864	143
456.075	115.68
456.285	137.58
456.495	123.05
456.705	160.63
456.916	174.78
457.126	177.49
457.336	160.83
457.546	89.91
457.756	118.59
457.967	173.81
458.177	141.45
458.387	162.96
458.597	119.56
458.807	136.41
459.017	133.7
459.227	114.52
459.437	135.83
459.647	181.36
459.857	174.78
460.068	147.07
460.278	176.33
460.488	161.02
460.698	189.69
460.908	155.98
461.117	97.86
461.327	139.9
461.537	125.56
461.747	161.8
461.957	166.06
462.167	225.54
462.377	193.38
462.587	155.98
462.797	234.84
463.007	165.28
463.216	165.86
463.426	196.86
463.636	144.36
463.846	96.5
464.056	150.17
464.265	202.29
464.475	111.81
464.685	163.54
464.895	177.49
465.104	171.48
465.314	183.3
465.524	145.52
465.733	112.78
465.943	232.32
466.153	197.83
466.362	183.3
466.572	167.99
466.782	158.89
466.991	148.23
467.201	215.85
467.41	133.31
467.62	164.12
467.829	159.08
468.039	176.33
468.249	153.46
468.458	169.35
468.668	197.44
468.877	195.12
469.086	207.13
469.296	194.73
469.505	156.95
469.715	231.74
469.924	195.7
470.134	197.06
470.343	218.37
470.552	156.76
470.762	162.38
470.971	144.94
471.18	183.3
471.39	183.49
471.599	130.02
471.808	225.34
472.018	144.16
472.227	187.56
472.436	205.97
472.645	179.43
472.855	140.1
473.064	189.31
473.273	207.52
473.482	217.21
473.691	206.74
473.901	203.06
474.11	183.49
474.319	286.57
474.528	233.87
474.737	258.67
474.946	187.76
475.155	201.32
475.364	229.61
475.573	186.59
475.783	207.13
475.992	223.02
476.201	255.57
476.41	195.12
476.619	182.33
476.828	220.31
477.037	199.96
477.245	217.4
477.454	252.86
477.663	205
477.872	190.47
478.081	265.45
478.29	170.51
478.499	298.19
478.708	234.45
478.917	308.46
479.125	220.69
479.334	277.85
479.543	220.11
479.752	224.76
479.961	253.44
480.169	270.87
480.378	206.55
480.587	344.11
480.796	254.21
481.004	267
481.213	256.54
481.422	260.02
481.63	228.06
481.839	275.72
482.048	300.32
482.256	250.34
482.465	255.18
482.674	265.64
482.882	275.52
483.091	315.44
483.299	277.46
483.508	285.99
483.716	249.56
483.925	268.16
484.134	267.39
484.342	246.66
484.551	323.57
484.759	295.29
484.967	302.65
485.176	306.52
485.384	296.06
485.593	298.39
485.801	309.24
486.01	258.86
486.218	275.33
486.426	206.36
486.635	256.92
486.843	260.99
487.051	261.19
487.26	281.92
487.468	316.21
487.676	317.18
487.885	246.66
488.093	316.21
488.301	282.11
488.509	293.74
488.717	317.37
488.926	280.76
489.134	258.09
489.342	307.69
489.55	253.63
489.758	294.51
489.967	274.36
490.175	399.91
490.383	303.42
490.591	353.41
490.799	259.06
491.007	357.48
491.215	317.76
491.423	326.29
491.631	290.44
491.839	339.27
492.047	337.72
492.255	299.36
492.463	265.45
492.671	296.84
492.879	374.92
493.087	330.36
493.295	337.52
493.503	364.45
493.711	361.16
493.919	364.65
494.127	347.21
494.334	377.82
494.542	301.1
494.75	337.72
494.958	334.04
495.166	347.21
495.374	353.99
495.581	345.85
495.789	355.35
495.997	402.82
496.205	353.41
496.412	321.06
496.62	350.12
496.828	363.1
497.035	320.28
497.243	376.47
497.451	343.72
497.658	379.18
497.866	359.61
498.074	404.17
498.281	347.79
498.489	418.12
498.696	384.22
498.904	346.44
499.112	384.02
499.319	421.8
499.527	344.89
499.734	395.65
499.942	324.35
500.149	359.42
500.357	397.59
500.564	372.79
500.771	361.74
500.979	357.48
501.186	349.15
501.394	398.36
501.601	354.96
501.808	387.9
502.016	374.34
502.223	362.32
502.43	361.74
502.638	366.59
502.845	352.25
503.052	433.23
503.26	359.03
503.467	474.12
503.674	394.87
503.881	389.84
504.089	485.16
504.296	412.7
504.503	362.13
504.71	391.58
504.917	357.29
505.125	370.46
505.332	419.67
505.539	405.92
505.746	435.56
505.953	436.14
506.16	416.77
506.367	454.93
506.574	450.67
506.781	440.98
506.988	388.87
507.195	442.53
507.402	405.72
507.609	448.54
507.816	394.29
508.023	416.38
508.23	406.89
508.437	390.03
508.644	478.38
508.851	463.46
509.058	448.15
509.265	445.83
509.472	461.52
509.679	511.32
509.885	440.02
510.092	445.44
510.299	441.37
510.506	471.02
510.713	434.01
510.92	458.03
511.126	462.1
511.333	507.83
511.54	484.19
511.746	536.7
511.953	511.12
512.16	532.05
512.367	457.45
512.573	486.9
512.78	489.23
512.987	481.67
513.193	498.72
513.4	435.56
513.606	469.27
513.813	489.03
514.02	484
514.226	554.13
514.433	544.83
514.639	454.35
514.846	503.18
515.052	468.88
515.259	496.59
515.465	530.11
515.672	534.37
515.878	610.51
516.085	529.14
516.291	550.45
516.497	512.48
516.704	519.84
516.91	490.78
517.117	480.32
517.323	436.92
517.529	520.23
517.736	480.7
517.942	505.89
518.148	481.67
518.354	514.61
518.561	502.98
518.767	510.35
518.973	546.77
519.179	564.01
519.386	518.29
519.592	527.01
519.798	506.47
520.004	584.94
520.21	518.48
520.417	572.73
520.623	581.84
520.829	632.21
521.035	589.78
521.241	621.94
521.447	593.66
521.653	699.06
521.859	589.4
522.065	630.08
522.271	711.84
522.477	667.28
522.683	679.1
522.889	653.91
523.095	671.35
523.301	640.16
523.507	614.97
523.713	650.81
523.919	629.11
524.125	698.28
524.331	652.75
524.537	698.67
524.742	706.42
524.948	694.79
525.154	680.84
525.36	774.81
525.566	709.91
525.772	715.52
525.977	668.64
526.183	726.96
526.389	735.87
526.595	696.73
526.8	689.76
527.006	684.72
527.212	668.25
527.417	646.94
527.623	635.7
527.829	705.45
528.034	696.15
528.24	725.41
528.446	682.59
528.651	755.24
528.857	750.21
529.062	810.85
529.268	759.51
529.473	755.82
529.679	765.71
529.884	823.25
530.09	788.95
530.295	849.99
530.501	805.23
530.706	784.69
530.912	739.55
531.117	785.66
531.323	751.37
531.528	826.15
531.733	831.39
531.939	775.59
532.144	820.92
532.35	800.19
532.555	828.09
532.76	838.75
532.966	843.59
533.171	808.52
533.376	785.08
533.581	799.42
533.787	826.93
533.992	844.56
534.197	882.15
534.402	815.5
534.607	845.34
534.813	930.58
535.018	819.37
535.223	843.59
535.428	875.75
535.633	880.21
535.838	838.94
536.043	860.84
536.249	956.74
536.454	888.73
536.659	877.88
536.864	865.87
537.069	837.2
537.274	881.18
537.479	886.22
537.684	897.65
537.889	860.84
538.094	923.8
538.299	901.91
538.504	912.37
538.708	906.17
538.913	897.65
539.118	887.38
539.323	916.05
539.528	857.15
539.733	889.51
539.938	926.71
540.142	933.1
540.347	902.88
540.552	872.07
540.757	859.67
540.962	914.31
541.166	869.94
541.371	846.5
541.576	899.39
541.781	790.31
541.985	903.85
542.19	890.87
542.395	939.5
542.599	934.65
542.804	926.9
543.008	955.19
543.213	903.07
543.418	895.9
543.622	947.63
543.827	892.22
544.031	943.37
544.236	960.03
544.44	918.96
544.645	985.8
544.849	928.65
545.054	978.05
545.258	1015.83
545.463	1004.6
545.667	927.48
545.872	977.66
546.076	973.21
546.281	944.92
546.485	919.54
546.689	955.19
546.894	1013.7
547.098	933.3
547.302	912.95
547.507	942.21
547.711	952.28
547.915	1023
548.119	913.53
548.324	948.22
548.528	1024.75
548.732	947.44
548.936	1007.5
549.141	994.52
549.345	922.64
549.549	965.46
549.753	982.51
549.957	1025.33
550.161	1038.31
550.366	974.76
550.57	945.5
550.774	981.93
550.978	978.05
551.182	1032.88
551.386	951.51
551.59	971.66
551.794	943.95
551.998	1001.11
552.202	948.99
552.406	924.19
552.61	991.23
552.814	977.08
553.018	1053.42
553.222	1001.88
553.426	962.16
553.63	1023.78
553.833	980.38
554.037	933.68
554.241	1002.08
554.445	966.43
554.649	991.23
554.853	953.64
555.056	995.49
555.26	1006.92
555.464	993.36
555.668	971.27
555.871	1023.58
556.075	1015.83
556.279	953.83
556.483	942.4
556.686	975.15
556.89	957.13
557.094	994.91
557.297	891.45
557.501	1032.11
557.704	931.36
557.908	1022.81
558.112	942.6
558.315	1046.44
558.519	953.83
558.722	954.8
558.926	964.88
559.129	922.83
559.333	876.14
559.536	904.04
559.74	930.2
559.943	894.16
560.147	917.8
560.35	919.93
560.553	886.22
560.757	864.13
560.96	960.03
561.164	919.93
561.367	993.36
561.57	894.16
561.774	914.5
561.977	928.26
562.18	889.32
562.384	1008.28
562.587	895.13
562.79	911.02
562.993	922.64
563.197	932.13
563.4	967.01
563.603	955.58
563.806	992.39
564.009	863.74
564.212	940.47
564.416	830.22
564.619	887.18
564.822	859.29
565.025	959.65
565.228	887.96
565.431	897.26
565.634	794.38
565.837	824.8
566.04	844.37
566.243	852.5
566.446	773.07
566.649	894.16
566.852	800.58
567.055	834.1
567.258	887.77
567.461	918.38
567.664	887.96
567.867	785.66
568.07	852.5
568.273	839.91
568.475	917.41
568.678	828.87
568.881	797.29
569.084	834.1
569.287	755.82
569.489	784.3
569.692	861.8
569.895	845.53
570.098	762.8
570.3	746.33
570.503	720.17
570.706	754.47
570.909	713.97
571.111	722.5
571.314	728.12
571.516	729.47
571.719	745.75
571.922	762.99
572.124	725.79
572.327	761.25
572.529	687.43
572.732	716.88
572.935	737.42
573.137	764.93
573.34	712.62
573.542	733.54
573.745	744.59
573.947	755.82
574.15	687.63
574.352	690.34
574.554	766.29
574.757	694.79
574.959	692.66
575.162	673.68
575.364	701.19
575.566	812.59
575.769	710.29
575.971	701.77
576.173	637.06
576.376	684.33
576.578	715.52
576.78	733.93
576.982	635.51
577.185	671.54
577.387	635.31
577.589	631.63
577.791	727.73
577.993	678.13
578.196	682.2
578.398	681.81
578.6	719.79
578.802	633.18
579.004	628.14
579.206	658.95
579.408	680.07
579.61	634.34
579.812	691.89
580.014	657.4
580.216	650.43
580.418	635.7
580.62	623.11
580.822	604.12
581.024	667.48
581.226	690.53
581.428	661.86
581.63	703.9
581.832	623.69
582.034	701.77
582.236	636.67
582.438	696.15
582.64	705.84
582.841	719.79
583.043	720.17
583.245	646.16
583.447	672.51
583.649	657.21
583.85	644.81
584.052	714.56
584.254	616.52
584.456	681.81
584.657	632.6
584.859	681.23
585.061	645
585.262	620.59
585.464	617.68
585.666	663.79
585.867	635.12
586.069	694.41
586.27	643.06
586.472	666.51
586.674	617.88
586.875	654.49
587.077	583.39
587.278	653.14
587.48	641.71
587.681	715.72
587.883	609.93
588.084	593.85
588.285	613.23
588.487	590.36
588.688	602.18
588.89	567.11
589.091	558.59
589.292	586.3
589.494	579.32
589.695	568.86
589.896	502.21
590.098	513.25
590.299	561.69
590.5	523.13
590.702	508.99
590.903	566.15
591.104	623.3
591.305	589.98
591.507	636.09
591.708	614.58
591.909	585.52
592.11	637.25
592.311	578.74
592.512	575.64
592.714	533.01
592.915	559.75
593.116	544.25
593.317	575.83
593.518	572.73
593.719	548.32
593.92	596.18
594.121	619.81
594.322	572.73
594.523	565.56
594.724	541.93
594.925	553.36
595.126	575.06
595.327	578.35
595.528	560.53
595.729	579.32
595.929	562.46
596.13	562.46
596.331	561.3
596.532	565.76
596.733	645
596.934	598.5
597.135	609.93
597.335	578.55
597.536	559.56
597.737	603.54
597.938	561.69
598.138	574.48
598.339	564.01
598.54	571.38
598.74	527.01
598.941	583.97
599.142	604.51
599.342	603.35
599.543	549.29
599.744	550.65
599.944	570.21
600.145	580.48
600.345	544.06
600.546	633.57
600.746	619.81
600.947	639.96
601.147	570.8
601.348	576.61
601.548	549.1
601.749	568.28
601.949	552.78
602.15	536.11
602.35	552.39
602.551	591.14
602.751	527.01
602.951	556.46
603.152	514.03
603.352	597.34
603.552	547.74
603.753	577.77
603.953	570.99
604.153	551.81
604.354	539.21
604.554	550.06
604.754	554.91
604.954	526.43
605.155	576.03
605.355	560.53
605.555	597.92
605.755	605.48
605.955	560.53
606.155	600.83
606.356	587.26
606.556	580.29
606.756	587.46
606.956	523.91
607.156	607.03
607.356	543.86
607.556	549.48
607.756	562.46
607.956	596.95
608.156	557.04
608.356	515
608.556	570.6
608.756	562.85
608.956	503.37
609.156	540.57
609.356	535.53
609.556	524.3
609.755	510.93
609.955	483.8
610.155	518.1
610.355	510.73
610.555	521
610.755	542.12
610.954	492.13
611.154	544.64
611.354	566.73
611.554	504.53
611.753	520.23
611.953	457.26
612.153	542.51
612.352	531.66
612.552	491.94
612.752	466.75
612.951	520.81
613.151	509.18
613.351	489.81
613.55	503.95
613.75	538.44
613.949	498.33
614.149	514.03
614.348	488.45
614.548	489.42
614.747	453.19
614.947	474.7
615.146	456.48
615.346	517.71
615.545	496.01
615.745	476.83
615.944	516.55
616.144	494.85
616.343	515.19
616.542	491.36
616.742	490.78
616.941	481.48
617.14	413.67
617.34	483.22
617.539	476.44
617.738	454.35
617.938	522.94
618.137	484.97
618.336	434.78
618.535	493.3
618.734	462.3
618.934	459.97
619.133	462.68
619.332	483.03
619.531	440.98
619.73	457.07
619.929	499.88
620.128	495.82
620.328	505.31
620.527	460.75
620.726	468.11
620.925	475.08
621.124	439.63
621.323	489.42
621.522	420.25
621.721	423.35
621.92	404.56
622.119	468.5
622.318	444.67
622.517	423.16
622.715	462.88
622.914	406.69
623.113	431.1
623.312	391.39
623.511	472.37
623.71	429.94
623.909	411.92
624.107	482.25
624.306	392.35
624.505	401.65
624.704	433.43
624.902	428.59
625.101	472.18
625.3	440.98
625.499	406.69
625.697	420.06
625.896	405.14
626.095	456.1
626.293	383.64
626.492	400.49
626.69	448.35
626.889	397.97
627.088	415.22
627.286	403.4
627.485	417.93
627.683	400.1
627.882	441.18
628.08	349.54
628.279	402.24
628.477	454.35
628.676	382.86
628.874	424.9
629.073	397.2
629.271	369.88
629.469	404.56
629.668	383.05
629.866	398.94
630.065	392.35
630.263	406.3
630.461	357.09
630.66	391.39
630.858	413.86
631.056	449.51
631.254	448.73
631.453	373.17
631.651	408.82
631.849	425.68
632.047	440.21
632.245	407.47
632.444	398.94
632.642	405.92
632.84	426.26
633.038	385.96
633.236	347.4
633.434	354.77
633.632	348.18
633.83	379.95
634.028	428
634.227	389.45
634.425	443.12
634.623	402.62
634.821	422
635.019	408.63
635.216	373.75
635.414	426.45
635.612	428.97
635.81	396.04
636.008	428.97
636.206	405.92
636.404	415.02
636.602	372.2
636.8	386.35
636.997	405.92
637.195	428.39
637.393	397.39
637.591	446.8
637.789	429.94
637.986	381.5
638.184	431.3
638.382	444.47
638.58	421.03
638.777	455.32
638.975	395.45
639.173	402.24
639.37	427.81
639.568	419.87
639.765	405.14
639.963	382.67
640.161	421.03
640.358	429.17
640.556	350.89
640.753	379.37
640.951	368.72
641.148	399.33
641.346	386.54
641.543	394.1
641.741	431.1
641.938	364.84
642.136	386.74
642.333	377.82
642.531	408.05
642.728	423.35
642.925	374.72
643.123	378.21
643.32	383.44
643.517	393.52
643.715	381.7
643.912	341.79
644.109	379.95
644.306	384.99
644.504	359.61
644.701	407.27
644.898	388.29
645.095	354.77
645.293	377.05
645.49	376.27
645.687	390.42
645.884	416.77
646.081	320.47
646.278	346.44
646.475	323.96
646.672	340.04
646.87	397.78
647.067	374.53
647.264	372.01
647.461	329
647.658	309.62
647.855	395.84
648.052	334.42
648.249	301.68
648.446	322.8
648.642	344.69
648.839	323.57
649.036	324.93
649.233	289.67
649.43	287.34
649.627	311.56
649.824	315.44
650.021	320.09
650.217	301.68
650.414	277.85
650.611	341.21
650.808	330.36
651.004	319.89
651.201	364.84
651.398	367.55
651.595	333.07
651.791	308.27
651.988	337.72
652.185	297.81
652.381	334.42
652.578	276.11
652.775	325.32
652.971	312.14
653.168	302.07
653.364	324.16
653.561	285.6
653.757	309.43
653.954	274.94
654.15	291.61
654.347	381.5
654.543	297.81
654.74	258.86
654.936	271.84
655.133	343.72
655.329	342.37
655.525	311.17
655.722	313.5
655.918	270.1
656.115	351.47
656.311	248.79
656.507	249.18
656.704	256.73
656.9	251.5
657.096	246.85
657.292	251.69
657.489	297.22
657.685	309.24
657.881	245.49
658.077	276.3
658.273	262.35
658.47	358.64
658.666	279.4
658.862	311.56
659.058	268.36
659.254	314.66
659.45	271.84
659.646	295.48
659.842	293.16
660.038	315.82
660.234	272.23
660.43	290.64
660.626	358.84
660.822	308.46
661.018	313.69
661.214	282.11
661.41	236.39
661.606	308.85
661.802	294.12
661.998	282.11
662.194	260.8
662.39	277.46
662.586	301.1
662.781	311.56
662.977	296.45
663.173	297.22
663.369	263.12
663.564	301.87
663.76	321.83
663.956	287.54
664.152	316.02
664.347	221.47
664.543	291.02
664.739	278.04
664.934	237.16
665.13	236.97
665.326	302.46
665.521	270.49
665.717	268.55
665.912	247.43
666.108	201.13
666.304	266.61
666.499	265.45
666.695	196.09
666.89	260.8
667.086	291.41
667.281	293.35
667.477	336.75
667.672	275.14
667.867	275.52
668.063	252.86
668.258	234.45
668.454	280.37
668.649	313.89
668.844	284.05
669.04	291.41
669.235	243.94
669.43	240.46
669.626	236.39
669.821	248.79
670.016	239.29
670.211	254.99
670.407	204.61
670.602	269.71
670.797	249.76
670.992	268.94
671.187	232.9
671.382	280.95
671.578	226.7
671.773	255.37
671.968	205.39
672.163	242.98
672.358	284.24
672.553	223.21
672.748	214.88
672.943	310.59
673.138	237.16
673.333	278.43
673.528	225.34
673.723	247.04
673.918	232.51
674.113	205.58
674.308	309.62
674.503	275.91
674.698	259.64
674.892	263.32
675.087	286.57
675.282	297.22
675.477	253.05
675.672	271.07
675.867	243.75
676.061	207.71
676.256	212.75
676.451	229.8
676.646	250.14
676.84	225.15
677.035	202.87
677.23	205.39
677.424	253.05
677.619	251.89
677.814	282.89
678.008	265.64
678.203	209.07
678.397	224.38
678.592	243.94
678.787	288.31
678.981	244.33
679.176	249.76
679.37	236.58
679.565	238.71
679.759	240.46
679.954	267.39
680.148	277.85
680.342	293.35
680.537	278.82
680.731	229.41
680.926	258.28
681.12	270.49
681.314	225.73
681.509	241.62
681.703	250.73
681.897	258.67
682.092	234.06
682.286	230.77
682.48	319.89
682.674	262.35
682.869	232.13
683.063	237.36
683.257	312.92
683.451	217.4
683.645	274.94
683.839	245.49
684.034	260.02
684.228	273.39
684.422	214.3
684.616	256.73
684.81	252.86
685.004	227.48
685.198	240.46
685.392	291.22
685.586	221.08
685.78	278.62
685.974	259.64
686.168	289.09
686.362	318.73
686.556	237.36
686.75	206.16
686.944	233.29
687.138	258.67
687.331	185.24
687.525	236.97
687.719	157.73
687.913	256.92
688.107	217.79
688.301	173.61
688.494	243.75
688.688	204.42
688.882	180.39
689.076	189.89
689.269	199.58
689.463	282.11
689.657	249.56
689.85	216.82
690.044	203.26
690.238	222.63
690.431	216.82
690.625	228.44
690.818	245.49
691.012	234.06
691.205	272.62
691.399	194.15
691.593	259.25
691.786	276.11
691.98	307.88
692.173	319.31
692.366	294.32
692.56	281.72
692.753	363.1
692.947	253.24
693.14	335.78
693.333	279.01
693.527	235.42
693.72	307.88
693.914	294.12
694.107	291.99
694.3	311.76
694.493	283.47
694.687	353.02
694.88	308.46
695.073	367.75
695.266	359.03
695.46	319.31
695.653	387.7
695.846	356.12
696.039	302.65
696.232	341.21
696.425	367.36
696.618	347.99
696.812	342.37
697.005	420.84
697.198	484.38
697.391	385.38
697.584	431.68
697.777	473.92
697.97	447.18
698.163	447.57
698.356	415.41
698.549	519.26
698.742	469.47
698.935	412.12
699.127	459.39
699.32	433.82
699.513	443.12
699.706	442.15
699.899	508.22
700.092	471.02
700.285	494.85
700.477	442.53
700.67	518.87
700.863	511.9
701.056	588.62
701.248	556.85
701.441	556.07
701.634	544.06
701.826	642.48
702.019	508.41
702.212	580.68
702.404	560.33
702.597	535.53
702.79	591.33
702.982	591.14
703.175	627.95
703.367	626.4
703.56	642.48
703.752	737.42
703.945	657.79
704.137	699.06
704.33	693.63
704.522	719.98
704.715	708.16
704.907	708.94
705.1	738.58
705.292	747.49
705.484	722.69
705.677	778.88
705.869	766.87
706.061	809.1
706.254	835.84
706.446	789.92
706.638	779.27
706.831	838.17
707.023	824.41
707.215	883.31
707.407	884.08
707.599	895.71
707.792	891.45
707.984	891.06
708.176	938.14
708.368	855.22
708.56	938.53
708.752	936.78
708.944	927.1
709.136	949.18
709.329	942.4
709.521	1071.63
709.713	1030.95
709.905	1024.55
710.097	1046.25
710.289	1019.51
710.481	1028.04
710.672	1043.73
710.864	1057.1
711.056	1112.51
711.248	1101.66
711.44	1075.89
711.632	1102.63
711.824	1130.34
712.016	1171.8
712.207	1143.9
712.399	1140.61
712.591	1208.81
712.783	1187.11
712.975	1208.03
713.166	1170.83
713.358	1184.78
713.55	1256.85
713.741	1265.19
713.933	1232.25
714.125	1262.47
714.316	1239.42
714.508	1309.17
714.7	1319.43
714.891	1310.33
715.083	1371.75
715.274	1298.12
715.466	1345.98
715.657	1340.55
715.849	1288.63
716.04	1307.42
716.232	1280.1
716.423	1365.35
716.615	1264.22
716.806	1277.39
716.998	1253.37
717.189	1227.99
717.381	1172.96
717.572	1173.35
717.763	1192.72
717.955	1158.04
718.146	1136.34
718.337	1099.53
718.528	1104.96
718.72	1037.53
718.911	1110.19
719.102	1084.23
719.293	1139.83
719.485	1109.41
719.676	1113.29
719.867	1050.32
720.058	1092.17
720.249	1101.86
720.44	1128.01
720.632	1145.06
720.823	1207.26
721.014	1282.24
721.205	1291.92
721.396	1329.32
721.587	1458.74
721.778	1444.01
721.969	1487.99
722.16	1504.46
722.351	1507.56
722.542	1631.95
722.733	1672.44
722.924	1539.53
723.115	1601.34
723.305	1550.19
723.496	1618.58
723.687	1527.52
723.878	1528.68
724.069	1550.38
724.26	1564.14
724.45	1490.9
724.641	1490.13
724.832	1518.03
725.023	1534.11
725.213	1524.03
725.404	1490.32
725.595	1501.17
725.785	1509.5
725.976	1581.96
726.167	1621.87
726.357	1572.86
726.548	1686
726.739	1605.21
726.929	1657.14
727.12	1679.61
727.31	1676.7
727.501	1662.17
727.691	1706.93
727.882	1668.37
728.072	1739.29
728.263	1704.22
728.453	1786.56
728.644	1762.92
728.834	1745.1
729.024	1766.99
729.215	1755.17
729.405	1795.47
729.596	1857.86
729.786	1886.34
729.976	1891.57
730.167	1855.53
730.357	1837.32
730.547	1866
730.737	1917.92
730.928	1942.14
731.118	2004.33
731.308	1901.26
731.498	1943.11
731.688	2018.09
731.879	2018.28
732.069	2077.18
732.259	2108.37
732.449	2125.04
732.639	2193.62
732.829	2190.91
733.019	2265.89
733.209	2303.86
733.399	2300.57
733.589	2364.51
733.779	2432.13
733.969	2390.28
734.159	2450.14
734.349	2518.73
734.539	2491.8
734.729	2507.88
734.919	2549.34
735.109	2573.95
735.299	2509.82
735.488	2572.59
735.678	2584.8
735.868	2577.82
736.058	2591.19
736.248	2577.24
736.437	2567.55
736.627	2546.82
736.817	2666.17
737.007	2603.2
737.196	2661.13
737.386	2617.73
737.576	2652.03
737.765	2698.33
737.955	2693.49
738.144	2766.92
738.334	2801.99
738.524	2692.13
738.713	2756.26
738.903	2726.81
739.092	2788.43
739.282	2779.13
739.471	2790.75
739.661	2786.1
739.85	2840.35
740.04	2866.89
740.229	2855.08
740.419	2909.52
740.608	2900.99
740.797	2922.69
740.987	2956.41
741.176	2926.76
741.365	2915.14
741.555	2864.38
741.744	2991.47
741.933	2950.01
742.123	3004.84
742.312	2995.93
742.501	3034.29
742.69	3030.03
742.88	2993.22
743.069	3067.03
743.258	3012.98
743.447	3125.93
743.636	3093.77
743.825	3032.55
744.014	3070.13
744.204	3073.04
744.393	3067.03
744.582	3157.9
744.771	3150.73
744.96	3101.33
745.149	3152.67
745.338	3109.47
745.527	3180.38
745.716	3127.68
745.905	3146.86
746.094	3156.93
746.283	3189.29
746.471	3183.86
746.66	3249.35
746.849	3175.15
747.038	3237.92
747.227	3159.84
747.416	3185.22
747.604	3173.79
747.793	3167.01
747.982	3193.94
748.171	3197.62
748.359	3225.71
748.548	3217
748.737	3222.61
748.926	3161.78
749.114	3101.72
749.303	3237.73
749.491	3223
749.68	3142.21
749.869	3276.48
750.057	3183.86
750.246	3166.04
750.434	3163.52
750.623	3197.43
750.811	3159.06
751	3261.75
751.188	3175.34
751.377	3161.2
751.565	3202.66
751.754	3126.9
751.942	3147.83
752.131	3243.54
752.319	3129.23
752.507	3142.79
752.696	3186.19
752.884	3189.29
753.072	3128.26
753.261	3179.6
753.449	3150.73
753.637	3142.98
753.825	3243.54
754.014	3141.82
754.202	3177.08
754.39	3210.99
754.578	3188.51
754.766	3127.48
754.955	3144.15
755.143	3248.19
755.331	3169.33
755.519	3168.36
755.707	3155.58
755.895	3140.27
756.083	3169.14
756.271	3126.13
756.459	3169.72
756.647	3193.75
756.835	3142.21
757.023	3103.46
757.211	3174.18
757.399	3105.78
757.587	3090.09
757.775	3079.82
757.963	3074.4
758.151	3111.6
758.339	3065.1
758.526	3050.76
758.714	3096.68
758.902	2950.01
759.09	2887.43
759.278	2705.5
759.465	2469.13
759.653	2153.52
759.841	1947.95
760.028	1674.77
760.216	1448.86
760.404	1332.22
760.591	1115.23
760.779	918.57
760.967	831
761.154	678.52
761.342	710.1
761.529	744.78
761.717	744.2
761.905	715.91
762.092	816.08
762.28	712.42
762.467	710.29
762.655	697.51
762.842	708.55
763.029	713.01
763.217	734.51
763.404	708.94
763.592	749.43
763.779	713.78
763.966	768.03
764.154	791.28
764.341	865.87
764.528	847.08
764.716	929.62
764.903	976.7
765.09	1034.05
765.277	1062.53
765.465	1226.82
765.652	1254.92
765.839	1359.54
766.026	1473.66
766.213	1528.68
766.4	1617.03
766.588	1789.66
766.775	1763.89
766.962	1886.73
767.149	1937.1
767.336	2075.63
767.523	2098.69
767.71	2204.08
767.897	2304.25
768.084	2374
768.271	2411.01
768.458	2473.59
768.645	2488.89
768.832	2554.38
769.019	2505.56
769.206	2543.34
769.392	2635.37
769.579	2725.07
769.766	2688.45
769.953	2679.35
770.14	2759.36
770.327	2737.86
770.513	2780.48
770.7	2813.42
770.887	2739.99
771.073	2803.15
771.26	2807.22
771.447	2784.75
771.634	2747.35
771.82	2858.56
772.007	2739.99
772.193	2771.57
772.38	2816.33
772.567	2805.86
772.753	2788.62
772.94	2828.73
773.126	2775.45
773.313	2878.13
773.499	2848.1
773.686	2826.21
773.872	2739.8
774.059	2807.61
774.245	2766.92
774.432	2819.62
774.618	2735.73
774.804	2814.97
774.991	2715
775.177	2803.34
775.363	2774.09
775.55	2777
775.736	2768.66
775.922	2738.63
776.109	2731.27
776.295	2781.65
776.481	2741.54
776.667	2766.34
776.853	2737.66
777.04	2704.34
777.226	2736.7
777.412	2819.43
777.598	2679.15
777.784	2707.05
777.97	2700.08
778.156	2712.67
778.342	2700.85
778.528	2669.47
778.715	2621.61
778.901	2676.83
779.087	2674.89
779.272	2657.65
779.458	2628.97
779.644	2646.6
779.83	2602.24
780.016	2742.9
780.202	2606.3
780.388	2648.35
780.574	2578.21
780.76	2618.12
780.946	2630.52
781.131	2627.23
781.317	2596.81
781.503	2568.33
781.689	2564.84
781.874	2730.88
782.06	2563.68
782.246	2593.32
782.432	2578.4
782.617	2590.03
782.803	2664.43
782.989	2511.76
783.174	2555.15
783.36	2490.06
783.545	2526.67
783.731	2596.62
783.916	2469.52
784.102	2550.89
784.288	2510.59
784.473	2505.56
784.659	2498.19
784.844	2523.96
785.029	2494.32
785.215	2498.39
785.4	2434.26
785.586	2529.77
785.771	2464.09
785.956	2493.93
786.142	2436.19
786.327	2427.48
786.512	2448.79
786.698	2444.72
786.883	2372.45
787.068	2395.89
787.254	2422.24
787.439	2385.43
787.624	2360.05
787.809	2374.58
787.994	2390.08
788.18	2421.28
788.365	2293.21
788.55	2354.82
788.735	2363.34
788.92	2350.75
789.105	2349.01
789.29	2356.95
789.475	2267.44
789.66	2285.65
789.845	2260.47
790.03	2281.2
790.215	2317.81
790.4	2342.23
790.585	2327.89
790.77	2265.7
790.955	2246.71
791.14	2267.83
791.325	2338.55
791.51	2172.5
791.695	2253.49
791.879	2221.91
792.064	2201.76
792.249	2306
792.434	2227.33
792.618	2286.62
792.803	2274.41
792.988	2239.15
793.173	2282.75
793.357	2263.57
793.542	2188.97
793.727	2243.8
793.911	2292.43
794.096	2253.49
794.281	2300.57
794.465	2344.75
794.65	2277.13
794.834	2355.79
795.019	2363.15
795.203	2302.12
795.388	2325.37
795.572	2289.53
795.757	2318.01
795.941	2311.42
796.126	2303.48
796.31	2222.1
796.494	2278.1
796.679	2245.16
796.863	2216.68
797.048	2353.08
797.232	2276.16
797.416	2321.5
797.601	2301.15
797.785	2340.29
797.969	2365.48
798.153	2265.5
798.338	2318.59
798.522	2315.68
798.706	2356.76
798.89	2327.5
799.074	2428.25
799.258	2372.84
799.443	2306.58
799.627	2318.01
799.811	2355.21
799.995	2290.5
800.179	2259.5
800.363	2315.88
800.547	2307.93
800.731	2327.5
800.915	2232.37
801.099	2301.93
801.283	2306.38
801.467	2294.95
801.651	2293.98
801.835	2337.19
802.019	2346.49
802.202	2317.23
802.386	2265.31
802.57	2225.59
802.754	2256.2
802.938	2256.78
803.121	2250.78
803.305	2339.51
803.489	2271.12
803.673	2294.95
803.856	2307.74
804.04	2295.34
804.224	2318.4
804.407	2262.4
804.591	2288.17
804.775	2260.85
804.958	2278.68
805.142	2393.38
805.326	2282.55
805.509	2297.66
805.693	2360.83
805.876	2302.7
806.06	2335.06
806.243	2324.21
806.427	2363.54
806.61	2372.26
806.794	2290.69
806.977	2331.57
807.16	2321.5
807.344	2347.85
807.527	2349.4
807.71	2321.11
807.894	2298.63
808.077	2337.19
808.26	2307.74
808.444	2229.66
808.627	2301.93
808.81	2284.88
808.993	2213
809.177	2208.54
809.36	2252.13
809.543	2242.45
809.726	2140.15
809.909	2189.36
810.092	2138.02
810.276	2157.78
810.459	2185.87
810.642	2169.99
810.825	2128.72
811.008	2122.13
811.191	2024.29
811.374	2062.84
811.557	2063.42
811.74	2127.36
811.923	2032.81
812.106	2028.74
812.289	2019.44
812.472	1991.35
812.654	1985.54
812.837	1947.95
813.02	1939.43
813.203	1920.44
813.386	1803.22
813.569	1784.04
813.751	1720.3
813.934	1782.88
814.117	1742
814.3	1681.16
814.482	1658.49
814.665	1651.71
814.848	1586.03
815.03	1547.09
815.213	1546.89
815.396	1559.29
815.578	1578.09
815.761	1506.21
815.943	1522.68
816.126	1468.43
816.309	1462.23
816.491	1408.95
816.674	1361.09
816.856	1424.64
817.039	1354.31
817.221	1462.03
817.403	1380.08
817.586	1384.92
817.768	1434.71
817.951	1331.25
818.133	1340.55
818.315	1379.5
818.498	1404.68
818.68	1469.4
818.862	1443.24
819.045	1448.28
819.227	1457.96
819.409	1421.73
819.591	1455.45
819.774	1427.16
819.956	1397.9
820.138	1491.87
820.32	1473.46
820.502	1518.03
820.684	1573.24
820.866	1605.41
821.048	1640.67
821.231	1642.8
821.413	1622.84
821.595	1610.83
821.777	1641.25
821.959	1628.66
822.141	1655.97
822.323	1573.05
822.505	1468.43
822.686	1422.7
822.868	1383.57
823.05	1296.77
823.232	1279.72
823.414	1216.55
823.596	1287.08
823.778	1239.8
823.96	1326.22
824.141	1296.57
824.323	1317.69
824.505	1378.33
824.687	1458.16
824.868	1481.21
825.05	1535.08
825.232	1569.17
825.413	1639.51
825.595	1606.96
825.777	1518.22
825.958	1587.97
826.14	1576.54
826.321	1607.73
826.503	1570.34
826.685	1582.16
826.866	1624.39
827.048	1577.12
827.229	1566.27
827.411	1514.34
827.592	1485.28
827.773	1496.13
827.955	1427.16
828.136	1410.3
828.318	1419.8
828.499	1435.49
828.68	1398.1
828.862	1427.93
829.043	1466.1
829.224	1418.83
829.406	1414.18
829.587	1386.67
829.768	1397.9
829.949	1419.41
830.131	1395.58
830.312	1475.98
830.493	1421.54
830.674	1475.01
830.855	1408.56
831.036	1435.49
831.218	1491.48
831.399	1490.71
831.58	1456.61
831.761	1432.58
831.942	1458.93
832.123	1432
832.304	1395
832.485	1429.68
832.666	1424.25
832.847	1436.46
833.028	1430.65
833.209	1447.11
833.389	1390.54
833.57	1372.52
833.751	1398.1
833.932	1456.41
834.113	1407.01
834.294	1400.23
834.475	1446.34
834.655	1476.37
834.836	1516.28
835.017	1475.6
835.198	1391.7
835.378	1451.96
835.559	1482.76
835.74	1457.77
835.92	1450.02
836.101	1456.03
836.281	1488.77
836.462	1476.18
836.643	1530.62
836.823	1517.06
837.004	1546.7
837.184	1515.51
837.365	1527.33
837.545	1516.28
837.726	1497.88
837.906	1552.71
838.087	1498.46
838.267	1496.33
838.448	1457.77
838.628	1493.42
838.808	1520.35
838.989	1531.59
839.169	1430.84
839.349	1502.33
839.53	1526.16
839.71	1521.13
839.89	1504.27
840.07	1559.29
840.251	1473.66
840.431	1522.29
840.611	1483.93
840.791	1522.09
840.971	1505.82
841.151	1475.6
841.332	1454.86
841.512	1526.55
841.692	1425.41
841.872	1484.31
842.052	1510.86
842.232	1553.09
842.412	1439.95
842.592	1458.55
842.772	1511.24
842.952	1496.33
843.132	1469.98
843.312	1448.28
843.492	1431.03
843.672	1482.96
843.851	1398.1
844.031	1434.71
844.211	1422.7
844.391	1434.33
844.571	1463.39
844.751	1487.22
844.93	1448.66
845.11	1440.14
845.29	1483.54
845.47	1470.75
845.649	1465.33
845.829	1460.1
846.009	1421.54
846.188	1437.81
846.368	1411.08
846.547	1453.9
846.727	1492.26
846.907	1434.71
847.086	1425.41
847.266	1463
847.445	1404.88
847.625	1428.9
847.804	1400.61
847.984	1414.56
848.163	1423.86
848.343	1396.35
848.522	1402.36
848.701	1449.44
848.881	1406.23
849.06	1413.6
849.239	1392.86
849.419	1415.92
849.598	1354.31
849.777	1332.8
849.957	1334.93
850.136	1305.1
850.315	1252.2
850.494	1291.73
850.674	1299.09
850.853	1348.11
851.032	1301.03
851.211	1323.12
851.39	1341.52
851.569	1282.62
851.748	1293.86
851.927	1340.36
852.107	1304.71
852.286	1277.97
852.465	1273.13
852.644	1312.85
852.823	1320.79
853.002	1319.05
853.181	1328.73
853.359	1326.8
853.538	1231.86
853.717	1328.35
853.896	1226.82
854.075	1197.76
854.254	1165.21
854.433	1122.01
854.611	1151.07
854.79	1066.98
854.969	1150.49
855.148	1160.95
855.327	1157.85
855.505	1160.76
855.684	1168.12
855.863	1184.59
856.041	1191.56
856.22	1200.09
856.399	1168.51
856.577	1255.5
856.756	1268.09
856.934	1372.72
857.113	1350.82
857.291	1266.15
857.47	1233.8
857.648	1280.69
857.827	1277.97
858.005	1334.55
858.184	1233.41
858.362	1316.53
858.541	1291.73
858.719	1281.65
858.898	1244.84
859.076	1276.23
859.254	1335.13
859.433	1252.98
859.611	1239.8
859.789	1216.36
859.967	1291.34
860.146	1311.88
860.324	1208.42
860.502	1277.2
860.68	1163.47
860.859	1200.86
861.037	1218.3
861.215	1219.46
861.393	1199.12
861.571	1212.1
861.749	1201.06
861.927	1245.81
862.105	1224.11
862.283	1182.84
862.461	1182.07
862.639	1151.07
862.817	1183.04
862.995	1230.7
863.173	1200.47
863.351	1169.09
863.529	1181.87
863.707	1236.7
863.885	1224.11
864.063	1134.6
864.241	1131.31
864.418	1225.47
864.596	1161.72
864.774	1141.77
864.952	1157.85
865.129	1154.56
865.307	1116.58
865.485	1092.36
865.663	1185.17
865.84	1116.58
866.018	1078.03
866.196	952.87
866.373	1032.5
866.551	989.87
866.728	958.48
866.906	987.16
867.084	996.07
867.261	1031.14
867.439	1048.58
867.616	1101.47
867.794	1044.31
867.971	1097.79
868.149	1074.54
868.326	1110.77
868.503	1116.39
868.681	1073.76
868.858	1045.67
869.035	1041.79
869.213	1097.4
869.39	1057.88
869.567	1140.41
869.745	1055.55
869.922	1107.09
870.099	1105.34
870.276	1080.35
870.454	1093.72
870.631	1115.81
870.808	1069.5
870.985	1080.74
871.162	1131.69
871.339	1097.21
871.517	1044.31
871.694	1033.08
871.871	1055.94
872.048	1062.33
872.225	1042.18
872.402	1039.66
872.579	1009.44
872.756	1069.11
872.933	1017.77
873.11	1031.53
873.287	1052.64
873.463	1035.98
873.64	993.55
873.817	1063.69
873.994	1041.41
874.171	978.44
874.348	1025.13
874.524	953.25
874.701	996.26
874.878	938.33
875.055	1023.39
875.231	1011.18
875.408	1014.48
875.585	941.05
875.762	993.36
875.938	980.57
876.115	970.5
876.291	974.56
876.468	962.75
876.645	945.31
876.821	982.12
876.998	931.94
877.174	996.85
877.351	949.77
877.527	954.8
877.704	998.4
877.88	961.78
878.057	943.57
878.233	1011.18
878.409	941.82
878.586	946.67
878.762	929.23
878.938	947.44
879.115	880.98
879.291	936.4
879.467	865.49
879.644	913.34
879.82	948.41
879.996	890.48
880.172	906.56
880.349	929.62
880.525	935.82
880.701	897.65
880.877	849.99
881.053	911.02
881.229	899.97
881.405	937.37
881.581	892.03
881.757	888.15
881.933	905.98
882.109	923.8
882.285	934.07
882.461	836.62
882.637	911.21
882.813	888.35
882.989	897.65
883.165	942.6
883.341	868.2
883.517	926.32
883.693	904.04
883.869	936.78
884.044	888.73
884.22	947.63
884.396	948.99
884.572	927.29
884.747	921.28
884.923	927.68
885.099	926.52
885.275	950.73
885.45	882.73
885.626	876.72
885.801	883.12
885.977	882.34
886.153	848.44
886.328	931.55
886.504	878.27
886.679	923.42
886.855	891.45
887.03	874.98
887.206	937.37
887.381	887.38
887.557	925.93
887.732	899
887.908	943.95
888.083	926.32
888.258	868.2
888.434	875.17
888.609	882.73
888.784	948.6
888.96	913.73
889.135	868.78
889.31	876.53
889.485	895.71
889.661	906.56
889.836	933.49
890.011	911.02
890.186	895.9
890.361	875.17
890.537	899.2
890.712	911.6
890.887	932.52
891.062	900.55
891.237	950.73
891.412	826.74
891.587	885.05
891.762	921.87
891.937	961
892.112	841.07
892.287	884.08
892.462	858.9
892.637	832.94
892.812	795.74
892.987	809.1
893.161	786.63
893.336	826.74
893.511	799.22
893.686	835.07
893.861	798.06
894.035	830.22
894.21	817.44
894.385	779.46
894.56	770.55
894.734	706.81
894.909	748.85
895.084	742.07
895.258	739.36
895.433	757.18
895.608	703.12
895.782	663.6
895.957	675.61
896.131	681.43
896.306	631.44
896.48	623.88
896.655	630.86
896.829	579.9
897.004	590.36
897.178	612.26
897.353	572.54
897.527	623.49
897.701	606.44
897.876	542.12
898.05	615.55
898.224	616.52
898.399	621.56
898.573	588.43
898.747	492.13
898.921	531.08
899.096	469.66
899.27	474.12
899.444	500.08
899.618	522.16
899.792	518.68
899.967	543.67
900.141	552.2
900.315	489.23
900.489	514.42
900.663	532.82
900.837	500.08
901.011	478.96
901.185	563.05
901.359	497.37
901.533	530.11
901.707	503.95
901.881	517.9
902.055	477.41
902.229	517.32
902.403	577.77
902.576	514.61
902.75	513.64
902.924	635.7
903.098	568.28
903.272	604.12
903.446	648.1
903.619	597.53
903.793	658.56
903.967	627.95
904.14	692.47
904.314	651.59
904.488	660.69
904.661	656.04
904.835	656.63
905.009	681.23
905.182	717.27
905.356	659.92
905.529	648.88
905.703	639.38
905.876	600.25
906.05	603.15
906.223	606.25
906.397	542.51
906.57	507.44
906.744	522.16
906.917	496.98
907.09	521.39
907.264	486.71
907.437	455.52
907.61	449.7
907.784	496.4
907.957	488.26
908.13	449.12
908.304	479.93
908.477	457.65
908.65	461.91
908.823	422
908.996	515
909.17	430.72
909.343	434.98
909.516	458.42
909.689	444.86
909.862	422
910.035	456.68
910.208	418.51
910.381	415.02
910.554	513.83
910.727	460.55
910.9	471.6
911.073	415.6
911.246	511.9
911.419	513.83
911.592	480.9
911.765	407.47
911.938	443.12
912.11	452.03
912.283	443.7
912.456	472.76
912.629	472.95
912.802	432.46
912.974	381.12
913.147	374.92
913.32	342.17
913.493	358.64
913.665	350.89
913.838	370.65
914.01	351.86
914.183	391
914.356	416.38
914.528	417.15
914.701	477.02
914.873	439.63
915.046	370.65
915.218	352.64
915.391	287.73
915.563	334.23
915.736	367.94
915.908	374.14
916.081	367.94
916.253	375.69
916.425	388.29
916.598	422.77
916.77	397
916.942	365.81
917.115	296.45
917.287	383.25
917.459	313.5
917.632	337.33
917.804	305.94
917.976	365.62
918.148	377.05
918.32	369.88
918.493	379.76
918.665	404.95
918.837	373.17
919.009	446.8
919.181	436.33
919.353	448.73
919.525	395.07
919.697	404.95
919.869	374.72
920.041	432.07
920.213	507.83
920.385	465.59
920.557	392.55
920.729	438.66
920.901	431.3
921.073	420.64
921.244	409.99
921.416	432.27
921.588	394.68
921.76	412.12
921.932	467.92
922.103	400.69
922.275	414.05
922.447	422.77
922.619	363.29
922.79	391.77
922.962	393.32
923.134	410.76
923.305	329.19
923.477	351.47
923.648	350.31
923.82	380.34
923.991	330.36
924.163	317.18
924.335	370.85
924.506	313.69
924.677	393.9
924.849	319.51
925.02	348.76
925.192	383.44
925.363	353.8
925.535	361.35
925.706	346.05
925.877	388.48
926.049	345.27
926.22	343.92
926.391	364.07
926.562	402.04
926.734	320.09
926.905	368.72
927.076	295.48
927.247	313.5
927.419	278.24
927.59	266.22
927.761	306.33
927.932	267.58
928.103	298.19
928.274	252.66
928.445	229.03
928.616	255.18
928.787	240.07
928.958	280.95
929.129	262.16
929.3	231.16
929.471	192.41
929.642	169.54
929.813	141.26
929.984	223.79
930.155	139.9
930.326	186.21
930.496	151.33
930.667	112
930.838	152.69
931.009	109.29
931.18	136.61
931.35	126.15
931.521	120.33
931.692	86.23
931.863	69.96
932.033	113.36
932.204	116.07
932.374	88.36
932.545	84.68
932.716	115.1
932.886	89.91
933.057	47.29
933.227	54.07
933.398	136.8
933.568	50.78
933.739	31.02
933.909	47.1
934.08	87.98
934.25	-13.16
934.421	42.25
934.591	46.32
934.761	23.46
934.932	-9.09
935.102	30.82
935.272	21.91
935.443	27.14
935.613	17.84
935.783	22.88
935.953	14.74
936.123	140.1
936.294	24.43
936.464	18.03
936.634	42.25
936.804	-11.8
936.974	7.96
937.144	59.3
937.314	41.09
937.484	34.31
937.655	3.7
937.825	43.03
937.995	20.17
938.165	86.62
938.334	45.16
938.504	58.33
938.674	8.73
938.844	56.98
939.014	98.83
939.184	75.38
939.354	117.62
939.524	119.56
939.694	57.75
939.863	69.57
940.033	131.38
940.203	122.66
940.373	87.01
940.542	95.53
940.712	46.13
940.882	59.69
941.051	113.36
941.221	123.63
941.391	104.45
941.56	49.23
941.73	59.88
941.899	139.13
942.069	59.88
942.238	93.98
942.408	50.39
942.577	103.28
942.747	70.35
942.916	15.13
943.086	32.76
943.255	83.13
943.425	75.38
943.594	41.87
943.763	14.55
943.933	24.23
944.102	-6.57
944.271	58.33
944.441	74.61
944.61	52.52
944.779	39.93
944.948	136.41
945.117	30.82
945.287	50.2
945.456	-3.28
945.625	18.42
945.794	56.01
945.963	60.47
946.132	75.97
946.301	29.08
946.47	75.58
946.639	7.38
946.808	36.44
946.977	68.6
947.146	116.07
947.315	58.33
947.484	71.32
947.653	37.6
947.822	53.1
947.991	48.07
948.16	110.84
948.329	68.8
948.498	35.86
948.666	54.46
948.835	85.65
949.004	25.4
949.173	14.93
949.341	38.38
949.51	75.58
949.679	102.9
949.847	84.3
950.016	129.25
950.185	93.01
950.353	41.87
950.522	22.49
950.69	89.53
950.859	49.42
951.028	92.82
951.196	72.09
951.365	32.76
951.533	50.58
951.701	78.29
951.87	78.29
952.038	5.25
952.207	79.26
952.375	100.57
952.543	47.1
952.712	53.49
952.88	32.57
953.048	111.23
953.217	79.65
953.385	60.08
953.553	87.01
953.721	40.51
953.89	73.83
954.058	16.1
954.226	40.51
954.394	81
954.562	0.98
954.73	57.17
954.898	63.18
955.067	90.69
955.235	50
955.403	97.66
955.571	97.47
955.739	66.28
955.907	4.08
956.075	57.56
956.243	51.55
956.41	78.1
956.578	22.3
956.746	39.35
956.914	55.23
957.082	96.89
957.25	72.67
957.418	31.02
957.585	70.35
957.753	79.45
957.921	45.74
958.089	68.02
958.256	77.52
958.424	81.78
958.592	93.4
958.759	18.81
958.927	76.55
959.095	24.82
959.262	74.22
959.43	56.2
959.597	35.86
959.765	61.63
959.932	21.33
960.1	96.89
960.267	88.36
960.435	52.91
960.602	98.05
960.77	46.32
960.937	25.59
961.104	57.56
961.272	29.66
961.439	44.38
961.606	84.1
961.774	72.48
961.941	54.65
962.108	78.29
962.275	50.97
962.443	100.18
962.61	54.46
962.777	125.18
962.944	84.88
963.111	89.72
963.278	90.5
963.446	73.83
963.613	89.53
963.78	75.77
963.947	84.88
964.114	92.43
964.281	143
964.448	119.17
964.615	62.21
964.782	88.56
964.949	106.96
965.116	103.28
965.282	124.98
965.449	102.12
965.616	62.21
965.783	95.34
965.95	87.01
966.117	44.77
966.283	82.75
966.45	81.2
966.617	101.35
966.784	120.91
966.95	82.36
967.117	107.55
967.284	57.95
967.45	48.84
967.617	125.76
967.784	103.67
967.95	149.78
968.117	99.41
968.283	130.6
968.45	149.78
968.616	116.46
968.783	135.25
968.949	107.35
969.116	139.71
969.282	84.49
969.449	109.87
969.615	86.43
969.781	72.87
969.948	83.52
970.114	66.67
970.28	145.71
970.447	95.53
970.613	127.11
970.779	90.3
970.945	142.03
971.112	107.55
971.278	86.81
971.444	127.11
971.61	131.57
971.776	89.91
971.942	68.8
972.108	116.65
972.275	96.11
972.441	93.4
972.607	162.96
972.773	88.36
972.939	94.56
973.105	90.5
973.271	57.56
973.437	87.2
973.602	71.32
973.768	92.24
973.934	61.24
974.1	88.75
974.266	13.19
974.432	105.8
974.598	86.81
974.763	109.48
974.929	72.48
975.095	133.51
975.261	53.49
975.426	49.62
975.592	74.22
975.758	145.52
975.923	31.02
976.089	46.32
976.255	112.58
976.42	60.85
976.586	99.6
976.751	105.03
976.917	162.96
977.082	109.29
977.248	36.63
977.413	5.25
977.579	62.4
977.744	89.91
977.91	40.7
978.075	68.6
978.24	87.2
978.406	98.63
978.571	63.18
978.736	43.22
978.902	99.8
979.067	51.17
979.232	19.78
979.397	80.81
979.563	125.56
979.728	26.75
979.893	51.94
980.058	62.02
980.223	102.51
980.388	79.65
980.554	87.4
980.719	96.5
980.884	94.76
981.049	113.55
981.214	84.49
981.379	81.58
981.544	82.36
981.709	74.42
981.874	56.59
982.039	68.02
982.204	106.58
982.368	90.88
982.533	60.85
982.698	96.5
982.863	114.52
983.028	77.13
983.193	83.33
983.357	89.14
983.522	93.21
983.687	73.25
983.852	55.23
984.016	66.08
984.181	93.6
984.346	78.48
984.51	104.64
984.675	110.65
984.839	111.61
985.004	96.11
985.168	126.92
985.333	98.44
985.498	50.58
985.662	98.44
985.827	106.19
985.991	102.9
986.155	83.91
986.32	102.7
986.484	141.84
986.649	90.3
986.813	36.05
986.977	93.21
987.142	104.83
987.306	44.19
987.47	52.13
987.634	92.24
987.799	83.13
987.963	81.39
988.127	93.6
988.291	121.3
988.455	96.31
988.62	69.38
988.784	113.94
988.948	100.76
989.112	57.95
989.276	95.15
989.44	78.29
989.604	34.89
989.768	81.2
989.932	139.13
990.096	36.63
990.26	49.81
990.424	60.47
990.588	68.02
990.752	131.18
990.915	130.99
991.079	67.44
991.243	50.58
991.407	92.82
991.571	84.3
991.734	98.63
991.898	109.48
992.062	181.94
992.226	46.32
992.389	43.8
992.553	16.1
992.717	43.61
992.88	56.78
993.044	82.16
993.207	59.88
993.371	99.6
993.535	74.42
993.698	84.3
993.862	91.08
994.025	123.63
994.189	76.35
994.352	69.38
994.515	74.8
994.679	105.22
994.842	76.74
995.006	113.36
995.169	47.1
995.332	50
995.496	87.59
995.659	50
995.822	74.42
995.985	80.03
996.149	111.23
996.312	56.98
996.475	113.36
996.638	49.81
996.801	111.23
996.964	130.8
997.128	59.69
997.291	40.7
997.454	54.27
997.617	9.32
997.78	93.21
997.943	50.78
998.106	89.53
998.269	57.17
998.432	71.32
998.595	47.48
998.758	14.74
998.92	47.68
999.083	-2.89
999.246	56.4
999.409	19.39
999.572	19.97
999.735	48.07
999.897	95.73
1000.06	32.57
1000.223	56.01
1000.386	81.39
1000.548	85.65
1000.711	69.18
1000.874	60.47
1001.036	-0.57
1001.199	79.45
1001.361	27.33
1001.524	46.52
1001.687	88.75
1001.849	51.17
1002.012	60.85
1002.174	84.3
1002.337	78.1
1002.499	31.02
1002.661	68.6
1002.824	16.87
1002.986	27.92
1003.149	54.65
1003.311	38.96
1003.473	112.78
1003.636	35.86
1003.798	57.17
1003.96	65.5
1004.123	54.27
1004.285	51.17
1004.447	47.29
1004.609	23.46
1004.771	111.42
1004.933	11.06
1005.096	16.48
1005.258	-8.51
1005.42	7.18
1005.582	76.74
1005.744	53.68
1005.906	-5.22
1006.068	50
1006.23	4.86
1006.392	-17.03
1006.554	0.4
1006.716	61.63
1006.878	45.74
1007.04	17.07
1007.202	44.77
1007.363	42.64
1007.525	70.93
1007.687	75.77
1007.849	84.3
1008.011	6.22
1008.172	-8.31
1008.334	24.23
1008.496	43.22
1008.658	12.03
1008.819	24.23
1008.981	6.22
1009.143	22.3
1009.304	23.85
1009.466	74.03
1009.627	103.09
1009.789	127.89
1009.95	71.12
1010.112	32.18
1010.273	61.82
1010.435	15.52
1010.596	22.49
1010.758	22.68
1010.919	22.88
1011.081	14.35
1011.242	24.04
1011.403	61.82
1011.565	31.79
1011.726	39.93
1011.887	21.33
1012.049	41.67
1012.21	69.96
1012.371	107.35
1012.532	-43.58
1012.693	30.82
1012.855	18.62
1013.016	43.42
1013.177	67.25
1013.338	9.12
1013.499	78.87
1013.66	62.4
1013.821	44.77
1013.982	58.33
1014.143	35.67
1014.304	5.05
1014.465	44.97
1014.626	39.54
1014.787	22.3
1014.948	125.76
1015.109	-27.88
1015.27	53.49
1015.431	18.42
1015.592	33.15
1015.752	68.41
1015.913	12.42
1016.074	37.99
1016.235	32.57
1016.395	38.38
1016.556	42.45
1016.717	13.19
1016.877	78.87
1017.038	23.46
1017.199	40.9
1017.359	33.73
1017.52	27.14
1017.681	13.19
1017.841	33.15
1018.002	-4.83
1018.162	3.89
1018.323	79.65
1018.483	26.56
1018.644	5.05
1018.804	-26.53
1018.964	-5.8
1019.125	26.17
1019.285	28.88
1019.446	-5.99
1019.606	25.01
1019.766	-28.46
1019.926	27.14
1020.087	40.9
1020.247	-24.4
1020.407	44
1020.567	46.9
1020.728	18.81
1020.888	19.2
1021.048	0.98
1021.208	3.31
1021.368	2.92
1021.528	67.25
1021.688	65.12
1021.848	35.67
1022.008	5.05
1022.168	7.38
1022.328	46.52
1022.488	54.85
1022.648	5.63
1022.808	32.95
1022.968	27.33
1023.128	-15.1
1023.288	-12.38
1023.448	3.7
1023.608	40.7
1023.767	19.97
1023.927	-4.44
1024.087	-14.13
1024.247	-8.31
1024.406	24.04
1024.566	-5.99
1024.726	-0.76
1024.885	25.98
1025.045	50
1025.205	15.71
1025.364	14.16
1025.524	36.63
1025.683	11.64
1025.843	17.84
1026.003	38.96
1026.162	49.03
1026.321	51.55
1026.481	30.24
1026.64	11.06
1026.8	31.79
1026.959	10.09
1027.119	46.9
1027.278	19.58
1027.437	3.5
1027.597	16.1
1027.756	17.45
1027.915	38.18
1028.074	30.24
1028.234	-14.51
1028.393	29.08
1028.552	-10.25
1028.711	-49.78
1028.87	47.48
1029.03	-35.44
1029.189	4.86
1029.348	-37.76
1029.507	2.34
1029.666	15.71
1029.825	-23.62
1029.984	10.67
1030.143	15.52
1030.302	8.54
1030.461	-58.88
1030.62	7.57
1030.779	45.55
1030.938	-8.51
1031.097	0.6
1031.255	32.37
1031.414	66.86
1031.573	49.81
1031.732	-33.11
1031.891	40.12
1032.049	36.63
1032.208	29.47
1032.367	-26.53
1032.525	4.67
1032.684	-3.08
1032.843	13.19
1033.001	-39.7
1033.16	159.28
1033.319	54.46
1033.477	38.96
1033.636	21.91
1033.794	-15.48
1033.953	29.66
1034.111	11.45
1034.27	-16.84
1034.428	49.62
1034.587	-8.51
1034.745	7.77
1034.903	22.3
1035.062	14.74
1035.22	-35.63
1035.378	39.15
1035.537	-20.91
1035.695	46.71
1035.853	-8.12
1036.011	41.28
1036.17	6.6
1036.328	-27.3
1036.486	31.6
1036.644	13.58
1036.802	-58.3
1036.96	-12.77
1037.119	-9.86
1037.277	-18.39
1037.435	-19.36
1037.593	-30.6
1037.751	35.08
1037.909	52.13
1038.067	52.13
