Data from oakcork_FLMT105791__220__17-32-51-055.txt Node

Date: Mon Mar 20 17:32:51 GMT 2023
User: antho
Spectrometer: FLMT10579
Trigger mode: 0
Integration Time (sec): 1.000000E-1
Scans to average: 10
Electric dark correction enabled: true
Nonlinearity correction enabled: false
Boxcar width: 0
XAxis mode: Wavelengths
Number of Pixels in Spectrum: 3648
>>>>>Begin Spectral Data<<<<<
345.248	-136.83
345.464	-136.83
345.681	-136.83
345.898	-135.87
346.114	-135.48
346.331	-29.89
346.548	3.25
346.764	-4.31
346.981	-22.14
347.197	-14.77
347.414	8.48
347.631	-23.88
347.847	67.96
348.064	4.99
348.28	26.49
348.497	-42.48
348.713	26.3
348.93	39.09
349.146	23.78
349.363	11.19
349.579	24.36
349.796	14.87
350.012	12.55
350.229	23.2
350.445	10.61
350.661	-4.31
350.878	10.8
351.094	11.38
351.311	12.55
351.527	18.94
351.743	-7.6
351.96	22.81
352.176	40.44
352.392	8.09
352.609	21.26
352.825	5.18
353.041	22.62
353.257	-11.87
353.474	10.61
353.69	40.64
353.906	21.07
354.122	-30.47
354.339	64.86
354.555	18.75
354.771	10.03
354.987	62.53
355.203	59.43
355.42	-14.77
355.636	5.96
355.852	-17.29
356.068	-9.74
356.284	-7.99
356.5	29.98
356.716	11.19
356.932	5.76
357.148	39.86
357.364	15.26
357.58	22.23
357.796	47.23
358.012	36.76
358.228	17.2
358.444	-62.05
358.66	48.19
358.876	17.58
359.092	-23.69
359.308	29.98
359.524	54.2
359.74	-7.22
359.956	11.38
360.172	-11.87
360.388	63.31
360.604	-0.63
360.819	88.49
361.035	16.42
361.251	12.93
361.467	18.36
361.683	55.36
361.898	36.76
362.114	37.93
362.33	35.21
362.546	35.79
362.762	-1.6
362.977	26.88
363.193	-18.45
363.409	43.35
363.624	-13.03
363.84	22.62
364.056	-11.87
364.271	39.48
364.487	30.18
364.703	27.27
364.918	-15.55
365.134	12.93
365.35	-9.54
365.565	100.89
365.781	35.41
365.996	33.86
366.212	80.36
366.427	56.14
366.643	9.64
366.858	20.88
367.074	-4.5
367.289	69.31
367.505	109.03
367.72	-15.94
367.936	18.36
368.151	35.41
368.367	66.41
368.582	26.11
368.798	23.2
369.013	61.56
369.228	28.63
369.444	45.48
369.659	50.91
369.874	42.58
370.09	72.99
370.305	-21.75
370.52	16.03
370.736	44.32
370.951	6.35
371.166	68.54
371.381	80.16
371.597	55.75
371.812	8.09
372.027	-0.24
372.242	12.35
372.458	81.71
372.673	7.7
372.888	2.86
373.103	42.58
373.318	107.87
373.533	54.59
373.749	34.83
373.964	-27.56
374.179	78.61
374.394	-2.37
374.609	86.94
374.824	-8.77
375.039	56.53
375.254	25.14
375.469	75.32
375.684	26.69
375.899	56.14
376.114	38.31
376.329	42.58
376.544	57.49
376.759	43.35
376.974	11.38
377.189	24.17
377.404	27.46
377.619	58.85
377.834	-4.5
378.049	-3.54
378.264	16.61
378.478	22.62
378.693	23.98
378.908	49.74
379.123	16.81
379.338	64.66
379.553	17.78
379.767	32.31
379.982	50.33
380.197	42.38
380.412	13.32
380.626	34.24
380.841	79.78
381.056	26.11
381.271	90.63
381.485	14.87
381.7	13.9
381.915	38.89
382.129	-6.83
382.344	37.15
382.559	34.24
382.773	56.72
382.988	-33.18
383.202	19.91
383.417	-23.88
383.632	123.95
383.846	28.82
384.061	42.77
384.275	10.41
384.49	31.92
384.704	46.26
384.919	39.09
385.133	40.83
385.348	65.05
385.562	2.28
385.777	78.81
385.991	41.8
386.206	-2.37
386.42	30.56
386.634	75.51
386.849	44.71
387.063	36.57
387.277	-1.4
387.492	6.35
387.706	-0.44
387.92	19.52
388.135	45.09
388.349	41.8
388.563	50.91
388.778	59.82
388.992	40.06
389.206	66.02
389.42	117.94
389.635	39.28
389.849	48.19
390.063	77.06
390.277	48.97
390.491	100.12
390.706	63.69
390.92	51.29
391.134	49.94
391.348	55.94
391.562	-7.8
391.776	72.8
391.99	36.76
392.205	72.22
392.419	-5.09
392.633	27.27
392.847	75.32
393.061	15.26
393.275	83.07
393.489	79.58
393.703	34.44
393.917	61.76
394.131	-7.6
394.345	48.97
394.559	77.26
394.773	22.43
394.986	65.24
395.2	62.92
395.414	78.23
395.628	43.16
395.842	52.65
396.056	43.93
396.27	25.14
396.484	56.33
396.697	46.45
396.911	86.75
397.125	43.16
397.339	65.44
397.553	75.32
397.766	106.9
397.98	87.72
398.194	105.16
398.408	58.85
398.621	100.12
398.835	78.42
399.049	53.04
399.262	104.77
399.476	96.44
399.69	67.96
399.903	145.84
400.117	73.38
400.331	71.83
400.544	61.56
400.758	182.46
400.971	68.15
401.185	127.44
401.398	55.36
401.612	97.41
401.826	106.71
402.039	68.73
402.253	62.73
402.466	113.49
402.68	97.21
402.893	85.01
403.106	83.84
403.32	73.38
403.533	104.77
403.747	74.93
403.96	96.24
404.174	104.96
404.387	56.91
404.6	78.81
404.814	96.44
405.027	75.32
405.24	86.36
405.454	53.43
405.667	106.51
405.88	43.54
406.094	76.09
406.307	135.96
406.52	74.35
406.733	68.93
406.947	39.48
407.16	142.94
407.373	120.07
407.586	68.93
407.799	42.19
408.012	97.21
408.226	109.42
408.439	126.86
408.652	45.09
408.865	66.6
409.078	139.45
409.291	96.63
409.504	68.73
409.717	105.35
409.93	103.8
410.143	88.88
410.357	42.19
410.57	49.55
410.783	81.33
410.996	100.12
411.209	91.79
411.421	118.52
411.634	109.81
411.847	70.67
412.06	72.99
412.273	84.23
412.486	118.33
412.699	160.57
412.912	84.81
413.125	125.89
413.338	86.36
413.55	125.89
413.763	79
413.976	113.68
414.189	70.86
414.402	99.73
414.615	161.92
414.827	65.24
415.04	127.63
415.253	93.53
415.466	133.64
415.678	177.81
415.891	114.46
416.104	95.08
416.316	95.47
416.529	99.15
416.742	140.61
416.954	141.58
417.167	95.47
417.38	94.69
417.592	123.56
417.805	63.5
418.017	54.59
418.23	114.84
418.442	88.11
418.655	104.19
418.868	93.53
419.08	152.24
419.293	156.5
419.505	121.62
419.718	119.11
419.93	168.12
420.142	107.68
420.355	174.32
420.567	157.47
420.78	157.66
420.992	112.32
421.205	180.91
421.417	68.15
421.629	104.38
421.842	74.74
422.054	63.5
422.266	130.92
422.479	165.41
422.691	96.44
422.903	118.52
423.115	102.25
423.328	121.82
423.54	172.58
423.752	119.3
423.964	93.14
424.177	109.22
424.389	133.64
424.601	212.49
424.813	133.06
425.025	170.84
425.238	163.47
425.45	127.63
425.662	107.09
425.874	389.38
426.086	126.08
426.298	143.71
426.51	151.66
426.722	140.81
426.934	130.15
427.146	147.01
427.358	93.92
427.57	140.81
427.782	107.09
427.994	129.37
428.206	94.11
428.418	103.61
428.63	137.32
428.842	165.41
429.054	133.83
429.266	157.47
429.478	98.76
429.69	112.13
429.902	96.83
430.114	140.03
430.325	140.22
430.537	109.42
430.749	127.24
430.961	87.91
431.173	111.16
431.384	128.79
431.596	54.01
431.808	126.86
432.02	146.23
432.231	182.46
432.443	185.37
432.655	144.87
432.867	115.81
433.078	128.79
433.29	209.59
433.502	174.91
433.713	183.43
433.925	134.22
434.136	186.14
434.348	103.22
434.56	95.28
434.771	222.76
434.983	120.07
435.194	131.31
435.406	151.27
435.617	193.89
435.829	230.12
436.04	184.98
436.252	197.19
436.463	206.49
436.675	197.38
436.886	172.77
437.098	182.66
437.309	240.2
437.521	162.51
437.732	184.98
437.943	188.08
438.155	187.11
438.366	129.57
438.578	209.97
438.789	177.23
439	194.28
439.211	161.92
439.423	219.66
439.634	199.12
439.845	205.9
440.057	188.27
440.268	204.16
440.479	157.08
440.69	196.99
440.902	176.65
441.113	196.99
441.324	178.01
441.535	207.07
441.746	247.17
441.957	179.75
442.168	197.19
442.38	202.42
442.591	223.54
442.802	205.32
443.013	166.38
443.224	205.32
443.435	203.39
443.646	209.78
443.857	222.57
444.068	189.05
444.279	187.5
444.49	275.46
444.701	210.94
444.912	332.62
445.123	238.84
445.334	204.55
445.545	216.75
445.756	235.35
445.967	181.49
446.178	212.3
446.388	247.56
446.599	243.69
446.81	242.52
447.021	211.14
447.232	236.9
447.443	290.38
447.653	204.74
447.864	256.28
448.075	249.69
448.286	273.33
448.496	258.02
448.707	281.47
448.918	201.45
449.129	321.57
449.339	228.19
449.55	248.34
449.761	218.89
449.971	286.31
450.182	242.72
450.393	265.58
450.603	241.36
450.814	275.85
451.024	261.9
451.235	277.4
451.446	291.54
451.656	311.69
451.867	241.75
452.077	277.01
452.288	275.46
452.498	302
452.709	234.58
452.919	267.13
453.13	237.49
453.34	296.58
453.55	212.69
453.761	263.64
453.971	283.6
454.182	275.65
454.392	256.67
454.602	326.8
454.813	286.7
455.023	256.09
455.233	233.42
455.444	278.95
455.654	222.76
455.864	255.12
456.075	243.69
456.285	258.02
456.495	283.02
456.705	272.36
456.916	325.06
457.126	314.21
457.336	252.21
457.546	234.39
457.756	242.52
457.967	328.74
458.177	248.34
458.387	271.97
458.597	214.62
458.807	271.2
459.017	253.95
459.227	272.36
459.437	246.79
459.647	296.77
459.857	300.07
460.068	249.69
460.278	323.32
460.488	287.67
460.698	343.85
460.908	283.02
461.117	264.42
461.327	276.82
461.537	291.93
461.747	299.1
461.957	266.35
462.167	374.08
462.377	309.75
462.587	297.93
462.797	345.79
463.007	316.73
463.216	323.9
463.426	349.28
463.636	334.75
463.846	258.22
464.056	295.8
464.265	313.82
464.475	278.17
464.685	329.32
464.895	351.41
465.104	314.02
465.314	336.88
465.524	332.62
465.733	289.99
465.943	370.2
466.153	344.24
466.362	347.53
466.572	339.59
466.782	289.22
466.991	297.16
467.201	366.13
467.41	271
467.62	340.37
467.829	315.57
468.039	310.53
468.249	308.4
468.458	362.26
468.668	365.55
468.877	364
469.086	392.87
469.296	368.46
469.505	332.62
469.715	416.51
469.924	363.03
470.134	358
470.343	388.41
470.552	317.89
470.762	337.27
470.971	324.28
471.18	348.5
471.39	360.13
471.599	320.6
471.808	368.46
472.018	314.79
472.227	405.66
472.436	395.97
472.645	345.4
472.855	371.17
473.064	411.08
473.273	374.08
473.482	385.9
473.691	413.6
473.901	412.25
474.11	379.5
474.319	460.49
474.528	388.41
474.737	454.48
474.946	399.46
475.155	429.68
475.364	437.82
475.573	392.1
475.783	396.55
475.992	424.45
476.201	447.12
476.41	399.07
476.619	393.06
476.828	419.22
477.037	383.38
477.245	428.71
477.454	420.19
477.663	400.43
477.872	412.83
478.081	500.79
478.29	375.43
478.499	513.38
478.708	487.42
478.917	505.83
479.125	456.81
479.334	474.63
479.543	443.63
479.752	442.86
479.961	463.2
480.169	503.89
480.378	460.68
480.587	564.14
480.796	481.41
481.004	470.76
481.213	513.19
481.422	474.44
481.63	479.67
481.839	525.2
482.048	560.66
482.256	513.96
482.465	519.78
482.674	531.01
482.882	537.79
483.091	573.06
483.299	545.54
483.508	527.33
483.716	517.45
483.925	536.83
484.134	522.68
484.342	556.59
484.551	528.88
484.759	553.29
484.967	568.21
485.176	564.53
485.384	557.75
485.593	595.72
485.801	549.03
486.01	539.93
486.218	513.19
486.426	463.2
486.635	500.21
486.843	480.44
487.051	524.81
487.26	519.58
487.468	549.81
487.676	533.92
487.885	519.58
488.093	570.92
488.301	563.37
488.509	562.59
488.717	571.31
488.926	581.77
489.134	561.82
489.342	574.8
489.55	566.27
489.758	576.35
489.967	574.22
490.175	671.29
490.383	581.77
490.591	622.46
490.799	561.24
491.007	643.58
491.215	617.62
491.423	598.63
491.631	614.71
491.839	598.82
492.047	663.54
492.255	586.23
492.463	563.17
492.671	615.68
492.879	642.61
493.087	596.89
493.295	650.75
493.503	643.58
493.711	672.45
493.919	701.9
494.127	681.36
494.334	679.23
494.542	614.52
494.75	660.05
494.958	638.35
495.166	697.83
495.374	666.64
495.581	686.59
495.789	680.78
495.997	705.97
496.205	668.38
496.412	676.13
496.62	662.18
496.828	680.39
497.035	666.25
497.243	700.93
497.451	690.85
497.658	660.82
497.866	671.09
498.074	721.85
498.281	652.69
498.489	748.78
498.696	695.12
498.904	673.03
499.112	686.98
499.319	728.63
499.527	676.9
499.734	735.22
499.942	647.65
500.149	656.37
500.357	694.15
500.564	677.68
500.771	711.2
500.979	653.07
501.186	674.77
501.394	727.47
501.601	688.92
501.808	735.22
502.016	685.24
502.223	703.06
502.43	667.8
502.638	697.25
502.845	668.96
503.052	755.95
503.26	694.15
503.467	760.99
503.674	718.75
503.881	726.12
504.089	796.45
504.296	736.58
504.503	646.87
504.71	692.99
504.917	696.86
505.125	724.57
505.332	726.5
505.539	762.73
505.746	828.8
505.953	771.65
506.16	768.35
506.367	819.31
506.574	820.86
506.781	795.09
506.988	724.76
507.195	753.82
507.402	763.51
507.609	793.54
507.816	758.08
508.023	762.93
508.23	750.72
508.437	720.69
508.644	784.63
508.851	819.7
509.058	829.96
509.265	803.03
509.472	818.73
509.679	871.43
509.885	769.9
510.092	826.67
510.299	800.32
510.506	833.45
510.713	825.7
510.92	827.25
511.126	828.22
511.333	883.63
511.54	881.7
511.746	892.55
511.953	891.58
512.16	899.33
512.367	839.07
512.573	845.46
512.78	839.65
512.987	884.6
513.193	854.96
513.4	829.38
513.606	825.12
513.813	859.8
514.02	847.79
514.226	902.23
514.433	912.11
514.639	824.54
514.846	878.01
515.052	871.23
515.259	872.98
515.465	861.74
515.672	884.21
515.878	974.11
516.085	874.53
516.291	905.33
516.497	868.71
516.704	867.16
516.91	802.65
517.117	791.41
517.323	777.46
517.529	832.29
517.736	837.33
517.942	819.5
518.148	840.04
518.354	868.33
518.561	840.04
518.767	862.32
518.973	916.57
519.179	911.53
519.386	907.85
519.592	895.06
519.798	846.82
520.004	977.02
520.21	922.96
520.417	936.72
520.623	984.77
520.829	993.49
521.035	971.21
521.241	995.23
521.447	1027.78
521.653	1110.51
521.859	978.76
522.065	1047.35
522.271	1086.1
522.477	1033.4
522.683	1077.77
522.889	1044.83
523.095	1055.29
523.301	1050.06
523.507	1006.66
523.713	1037.66
523.919	1017.9
524.125	1125.24
524.331	1061.88
524.537	1138.8
524.742	1108.38
524.948	1144.42
525.154	1132.79
525.36	1200.22
525.566	1155.27
525.772	1182
525.977	1081.45
526.183	1169.02
526.389	1155.85
526.595	1067.5
526.8	1126.59
527.006	1087.07
527.212	1035.72
527.417	1018.67
527.623	1031.85
527.829	1090.36
528.034	1119.04
528.24	1118.26
528.446	1141.32
528.651	1183.94
528.857	1168.25
529.062	1249.04
529.268	1186.85
529.473	1229.67
529.679	1224.43
529.884	1275.39
530.09	1230.05
530.295	1275.78
530.501	1221.72
530.706	1238.38
530.912	1188.01
531.117	1251.75
531.323	1248.07
531.528	1296.12
531.733	1290.11
531.939	1232.18
532.144	1246.91
532.35	1285.08
532.555	1303.29
532.76	1266.48
532.966	1272.1
533.171	1262.02
533.376	1229.28
533.581	1202.93
533.787	1237.61
533.992	1272.87
534.197	1312.4
534.402	1265.9
534.607	1266.86
534.813	1377.49
535.018	1287.98
535.223	1301.55
535.428	1313.95
535.633	1392.61
535.838	1355.21
536.043	1343.59
536.249	1419.15
536.454	1359.86
536.659	1355.6
536.864	1330.8
537.069	1327.12
537.274	1345.33
537.479	1357.73
537.684	1355.02
537.889	1331.96
538.094	1437.17
538.299	1346.3
538.504	1414.69
538.708	1393.77
538.913	1422.64
539.118	1371.68
539.323	1405.98
539.528	1344.36
539.733	1386.02
539.938	1422.64
540.142	1378.46
540.347	1360.83
540.552	1284.5
540.757	1339.13
540.962	1346.69
541.166	1309.1
541.371	1310.65
541.576	1356.96
541.781	1293.8
541.985	1382.92
542.19	1386.6
542.395	1401.91
542.599	1460.22
542.804	1441.43
543.008	1423.22
543.213	1389.7
543.418	1352.5
543.622	1380.4
543.827	1396.48
544.031	1438.14
544.236	1453.25
544.44	1438.14
544.645	1514.47
544.849	1429.61
545.054	1472.43
545.258	1560
545.463	1518.54
545.667	1425.93
545.872	1446.47
546.076	1444.53
546.281	1425.54
546.485	1447.63
546.689	1463.91
546.894	1460.61
547.098	1458.87
547.302	1427.09
547.507	1440.46
547.711	1475.72
547.915	1485.99
548.119	1436.78
548.324	1446.47
548.528	1505.17
548.732	1467.2
548.936	1521.25
549.141	1485.41
549.345	1464.49
549.549	1487.93
549.753	1500.33
549.957	1562.33
550.161	1549.35
550.366	1480.76
550.57	1463.32
550.774	1511.76
550.978	1486.19
551.182	1509.05
551.386	1454.22
551.59	1493.16
551.794	1468.75
551.998	1510.21
552.202	1473.59
552.406	1462.55
552.61	1473.98
552.814	1510.79
553.018	1539.85
553.222	1479.41
553.426	1513.31
553.63	1598.17
553.833	1481.15
554.037	1466.04
554.241	1514.28
554.445	1501.11
554.649	1473.98
554.853	1500.72
555.056	1515.83
555.26	1551.67
555.464	1518.35
555.668	1517.96
555.871	1549.15
556.075	1536.56
556.279	1470.3
556.483	1442.59
556.686	1490.26
556.89	1502.07
557.094	1498.78
557.297	1430.77
557.501	1523.19
557.704	1414.5
557.908	1499.56
558.112	1454.61
558.315	1518.93
558.519	1473.79
558.722	1452.67
558.926	1439.49
559.129	1382.92
559.333	1352.89
559.536	1375.36
559.74	1383.69
559.943	1399.58
560.147	1418.57
560.35	1388.73
560.553	1399.78
560.757	1367.61
560.96	1459.06
561.164	1400.36
561.367	1445.89
561.57	1381.56
561.774	1419.34
561.977	1405.78
562.18	1347.66
562.384	1476.31
562.587	1405.59
562.79	1386.79
562.993	1367.42
563.197	1402.49
563.4	1446.66
563.603	1418.96
563.806	1475.14
564.009	1349.98
564.212	1401.33
564.416	1330.22
564.619	1395.71
564.822	1316.08
565.025	1423.22
565.228	1374.01
565.431	1351.92
565.634	1272.1
565.837	1335.06
566.04	1333.9
566.243	1312.98
566.446	1230.25
566.649	1344.94
566.852	1282.75
567.055	1296.12
567.258	1343.59
567.461	1362.19
567.664	1366.45
567.867	1262.02
568.07	1345.14
568.273	1324.02
568.475	1350.37
568.678	1291.08
568.881	1290.89
569.084	1292.83
569.287	1215.33
569.489	1248.26
569.692	1267.25
569.895	1279.85
570.098	1213.78
570.3	1196.92
570.503	1152.36
570.706	1203.51
570.909	1185.3
571.111	1182.2
571.314	1121.17
571.516	1183.94
571.719	1191.11
571.922	1164.95
572.124	1188.4
572.327	1197.7
572.529	1145.19
572.732	1139.57
572.935	1198.67
573.137	1267.06
573.34	1163.98
573.542	1238.77
573.745	1174.06
573.947	1179.29
574.15	1156.43
574.352	1151.59
574.554	1214.94
574.757	1137.64
574.959	1097.14
575.162	1157.79
575.364	1136.67
575.566	1206.42
575.769	1123.69
575.971	1135.31
576.173	1028.56
576.376	1116.13
576.578	1144.61
576.78	1191.69
576.982	1048.32
577.185	1118.07
577.387	1089.2
577.589	1099.66
577.791	1113.03
577.993	1097.72
578.196	1080.09
578.398	1134.15
578.6	1103.15
578.802	1028.56
579.004	1028.56
579.206	1069.05
579.408	1106.25
579.61	1045.41
579.812	1127.17
580.014	1050.26
580.216	1059.17
580.418	1073.31
580.62	1074.67
580.822	1039.6
581.024	1088.62
581.226	1139.38
581.428	1066.92
581.63	1142.67
581.832	1052
582.034	1133.37
582.236	1052.19
582.438	1105.28
582.64	1167.08
582.841	1149.65
583.043	1191.69
583.245	1090.94
583.447	1083.77
583.649	1051.81
583.85	1089.2
584.052	1155.46
584.254	1072.34
584.456	1151.2
584.657	1078.35
584.859	1083.97
585.061	1086.29
585.262	1081.45
585.464	1021
585.666	1107.6
585.867	1048.9
586.069	1133.37
586.27	1045.8
586.472	1067.11
586.674	1064.01
586.875	1027.59
587.077	1021.58
587.278	1060.91
587.48	1048.71
587.681	1119.81
587.883	1055.68
588.084	1041.73
588.285	1039.21
588.487	1027.39
588.688	1037.86
588.89	956.09
589.091	945.24
589.292	931.68
589.494	936.91
589.695	909.21
589.896	850.5
590.098	890.22
590.299	929.36
590.5	881.7
590.702	909.01
590.903	946.41
591.104	976.63
591.305	965.78
591.507	1023.71
591.708	978.18
591.909	952.03
592.11	1022.55
592.311	1004.72
592.512	958.42
592.714	929.36
592.915	928.58
593.116	936.33
593.317	987.67
593.518	959.19
593.719	965.39
593.92	1012.86
594.121	1008.79
594.322	992.71
594.523	980.31
594.724	909.98
594.925	950.48
595.126	998.91
595.327	965.78
595.528	986.71
595.729	953.96
595.929	934.59
596.13	948.34
596.331	981.09
596.532	958.42
596.733	1034.95
596.934	1006.27
597.135	986.51
597.335	995.04
597.536	960.74
597.737	972.95
597.938	965.78
598.138	985.93
598.339	992.13
598.54	1001.82
598.74	962.1
598.941	961.13
599.142	1001.04
599.342	1002.21
599.543	952.99
599.744	956.87
599.944	966.36
600.145	972.76
600.345	953.19
600.546	1074.28
600.746	1026.23
600.947	1043.09
601.147	1000.46
601.348	999.88
601.548	957.45
601.749	987.09
601.949	936.91
602.15	955.32
602.35	954.35
602.551	990.58
602.751	939.24
602.951	956.87
603.152	888.09
603.352	981.67
603.552	940.98
603.753	987.67
603.953	994.07
604.153	957.26
604.354	944.28
604.554	957.64
604.754	971.01
604.954	940.01
605.155	976.63
605.355	939.82
605.555	1010.15
605.755	998.72
605.955	947.96
606.155	1016.35
606.356	946.99
606.556	972.95
606.756	987.67
606.956	925.68
607.156	1008.99
607.356	957.45
607.556	967.53
607.756	956.29
607.956	981.67
608.156	950.28
608.356	915.41
608.556	994.07
608.756	916.96
608.956	897.97
609.156	953.19
609.356	919.28
609.556	922.38
609.755	969.46
609.955	926.26
610.155	956.48
610.355	929.74
610.555	916.18
610.755	931.88
610.954	870.26
611.154	943.31
611.354	956.09
611.554	896.42
611.753	914.24
611.953	871.62
612.153	928.97
612.352	905.14
612.552	874.14
612.752	857.86
612.951	889.83
613.151	903.78
613.351	868.13
613.55	864.45
613.75	916.96
613.949	883.63
614.149	884.8
614.348	868.13
614.548	846.43
614.747	823.38
614.947	873.56
615.146	807.1
615.346	913.66
615.545	896.42
615.745	882.28
615.944	927.61
616.144	885.96
616.343	882.47
616.542	846.43
616.742	854.76
616.941	883.05
617.14	811.75
617.34	856.7
617.539	826.86
617.738	826.86
617.938	892.74
618.137	820.08
618.336	789.47
618.535	878.79
618.734	860.77
618.934	875.5
619.133	853.99
619.332	870.85
619.531	821.44
619.73	843.72
619.929	897.97
620.128	867.36
620.328	893.32
620.527	836.75
620.726	829.19
620.925	855.15
621.124	821.83
621.323	846.24
621.522	818.34
621.721	794.12
621.92	795.28
622.119	864.65
622.318	830.93
622.517	824.15
622.715	806.72
622.914	779.4
623.113	809.62
623.312	741.03
623.511	817.76
623.71	823.18
623.909	780.75
624.107	822.21
624.306	739.87
624.505	741.62
624.704	778.62
624.902	775.13
625.101	848.95
625.3	801.68
625.499	776.49
625.697	783.27
625.896	772.03
626.095	810.59
626.293	740.07
626.492	757.5
626.69	794.12
626.889	766.03
627.088	790.05
627.286	749.17
627.485	750.92
627.683	724.95
627.882	767.77
628.08	713.91
628.279	717.59
628.477	785.4
628.676	706.16
628.874	770.48
629.073	714.1
629.271	715.46
629.469	770.1
629.668	728.05
629.866	727.28
630.065	721.08
630.263	745.88
630.461	724.76
630.66	762.93
630.858	742.39
631.056	757.12
631.254	778.62
631.453	715.46
631.651	721.66
631.849	733.28
632.047	753.05
632.245	728.63
632.444	721.08
632.642	748.01
632.84	765.64
633.038	708.49
633.236	708.68
633.434	720.88
633.632	736
633.83	704.22
634.028	764.67
634.227	708.29
634.425	804.78
634.623	738.32
634.821	710.23
635.019	768.16
635.216	742.2
635.414	774.94
635.612	750.53
635.81	742.78
636.008	800.13
636.206	707.71
636.404	774.36
636.602	723.6
636.8	732.7
636.997	775.52
637.195	776.49
637.393	759.44
637.591	797.42
637.789	745.88
637.986	732.9
638.184	762.54
638.382	811.56
638.58	781.92
638.777	812.14
638.975	748.78
639.173	732.51
639.37	747.43
639.568	743.75
639.765	785.98
639.963	726.89
640.161	772.62
640.358	772.03
640.556	693.18
640.753	715.27
640.951	721.08
641.148	765.64
641.346	736.38
641.543	723.79
641.741	783.27
641.938	703.64
642.136	708.87
642.333	681.55
642.531	754.21
642.728	781.92
642.925	719.53
643.123	730.57
643.32	705
643.517	720.3
643.715	704.61
643.912	713.52
644.109	733.67
644.306	711.2
644.504	688.92
644.701	717.79
644.898	722.82
645.095	692.99
645.293	716.82
645.49	759.25
645.687	703.64
645.884	755.76
646.081	663.73
646.278	674.97
646.475	675.74
646.672	681.55
646.87	696.28
647.067	693.57
647.264	667.8
647.461	671.29
647.658	645.13
647.855	712.36
648.052	639.51
648.249	628.27
648.446	633.89
648.642	655.01
648.839	638.93
649.036	649.97
649.233	612
649.43	604.44
649.627	571.51
649.824	612.77
650.021	615.29
650.217	617.23
650.414	623.43
650.611	679.04
650.808	660.63
651.004	667.8
651.201	638.74
651.398	698.8
651.595	645.9
651.791	619.56
651.988	660.05
652.185	639.12
652.381	648.42
652.578	605.22
652.775	635.83
652.971	636.8
653.168	606.77
653.364	669.15
653.561	590.3
653.757	614.32
653.954	650.55
654.15	606.96
654.347	667.41
654.543	633.7
654.74	585.46
654.936	577.32
655.133	598.05
655.329	602.89
655.525	596.5
655.722	631.18
655.918	585.84
656.115	602.12
656.311	531.79
656.507	547.09
656.704	496.72
656.9	537.02
657.096	518.81
657.292	524.43
657.489	578.67
657.685	564.34
657.881	558.14
658.077	537.41
658.273	570.15
658.47	630.6
658.666	588.75
658.862	605.99
659.058	589.33
659.254	640.09
659.45	554.65
659.646	621.69
659.842	580.42
660.038	618.39
660.234	553.49
660.43	601.73
660.626	646.68
660.822	612.39
661.018	636.41
661.214	569.18
661.41	545.74
661.606	614.13
661.802	591.27
661.998	568.79
662.194	571.7
662.39	590.11
662.586	608.9
662.781	609.29
662.977	594.76
663.173	625.37
663.369	585.07
663.564	585.84
663.76	588.94
663.956	565.69
664.152	603.47
664.347	552.52
664.543	615.87
664.739	572.86
664.934	512.03
665.13	513.58
665.326	599.79
665.521	593.01
665.717	535.66
665.912	519.58
666.108	498.46
666.304	572.67
666.499	519.58
666.695	481.8
666.89	534.69
667.086	582.55
667.281	552.71
667.477	622.66
667.672	561.04
667.867	567.05
668.063	553.49
668.258	504.66
668.454	537.79
668.649	597.27
668.844	564.92
669.04	564.72
669.235	535.86
669.43	540.31
669.626	505.24
669.821	525.59
670.016	517.45
670.211	533.73
670.407	497.3
670.602	552.91
670.797	501.95
670.992	586.04
671.187	511.64
671.382	551.74
671.578	521.33
671.773	542.64
671.968	500.98
672.163	510.86
672.358	544.77
672.553	514.16
672.748	514.16
672.943	589.91
673.138	512.99
673.333	547.48
673.528	496.72
673.723	532.37
673.918	507.18
674.113	475.02
674.308	573.25
674.503	529.66
674.698	543.03
674.892	539.34
675.087	529.46
675.282	553.1
675.477	503.31
675.672	512.99
675.867	501.18
676.061	494.59
676.256	468.24
676.451	484.51
676.646	509.89
676.84	457.39
677.035	455.26
677.23	476.57
677.424	522.88
677.619	535.66
677.814	542.44
678.008	550.39
678.203	446.54
678.397	485.29
678.592	503.69
678.787	559.3
678.981	521.13
679.176	531.98
679.37	537.41
679.565	488.78
679.759	504.66
679.954	513.38
680.148	528.3
680.342	562.98
680.537	525.78
680.731	497.69
680.926	550.19
681.12	510.48
681.314	486.64
681.509	489.94
681.703	498.85
681.897	519.97
682.092	488.39
682.286	475.99
682.48	553.1
682.674	537.41
682.869	506.41
683.063	495.75
683.257	543.99
683.451	476.38
683.645	490.13
683.839	494.39
684.034	497.88
684.228	518.23
684.422	462.81
684.616	483.54
684.81	526.75
685.004	496.91
685.198	510.48
685.392	538.96
685.586	490.52
685.78	497.49
685.974	537.21
686.168	536.44
686.362	583.71
686.556	454.68
686.75	455.26
686.944	425.03
687.138	442.47
687.331	386.86
687.525	386.48
687.719	366.91
687.913	403.33
688.107	412.44
688.301	390.16
688.494	418.45
688.688	393.65
688.882	376.79
689.076	384.15
689.269	395
689.463	491.68
689.657	397.13
689.85	388.22
690.044	397.52
690.238	434.72
690.431	413.41
690.625	409.15
690.818	455.06
691.012	462.62
691.205	489.36
691.399	451.38
691.593	479.67
691.786	518.03
691.98	559.3
692.173	536.24
692.366	532.18
692.56	545.74
692.753	584.87
692.947	479.67
693.14	552.52
693.333	564.14
693.527	485.09
693.72	553.29
693.914	525.78
694.107	531.21
694.3	548.45
694.493	539.15
694.687	554.65
694.88	517.06
695.073	638.93
695.266	577.9
695.46	566.27
695.653	604.06
695.846	621.3
696.039	528.3
696.232	581.58
696.425	659.27
696.618	625.37
696.812	596.11
697.005	661.79
697.198	732.7
697.391	667.6
697.584	705.58
697.777	732.12
697.97	740.26
698.163	758.47
698.356	707.71
698.549	784.24
698.742	737.74
698.935	704.42
699.127	722.43
699.32	729.6
699.513	735.22
699.706	739.87
699.899	781.72
700.092	748.01
700.285	788.31
700.477	748.4
700.67	784.05
700.863	791.99
701.056	846.24
701.248	828.8
701.441	844.5
701.634	820.28
701.826	913.47
702.019	816.4
702.212	904.75
702.404	828.41
702.597	832.48
702.79	865.23
702.982	884.6
703.175	940.01
703.367	916.38
703.56	961.13
703.752	1023.71
703.945	988.26
704.137	978.38
704.33	1007.24
704.522	994.46
704.715	1014.99
704.907	1028.56
705.1	1065.56
705.292	1073.7
705.484	1034.95
705.677	1070.6
705.869	1068.47
706.061	1138.41
706.254	1165.53
706.446	1078.54
706.638	1103.15
706.831	1208.16
707.023	1150.23
707.215	1220.75
707.407	1220.17
707.599	1192.47
707.792	1264.73
707.984	1244
708.176	1266.28
708.368	1213.58
708.56	1261.63
708.752	1258.34
708.944	1247.68
709.136	1293.99
709.329	1275.97
709.521	1430.58
709.713	1361.22
709.905	1345.53
710.097	1408.11
710.289	1297.09
710.481	1380.4
710.672	1391.64
710.864	1407.53
711.056	1436.2
711.248	1445.11
711.44	1431.36
711.632	1442.79
711.824	1474.95
712.016	1539.47
712.207	1538.3
712.399	1492.97
712.591	1572.21
712.783	1558.07
712.975	1582.87
713.166	1533.07
713.358	1541.79
713.55	1622
713.741	1600.5
713.933	1583.25
714.125	1637.5
714.316	1605.15
714.508	1706.09
714.7	1677.22
714.891	1664.24
715.083	1705.9
715.274	1644.67
715.466	1715.58
715.657	1709.19
715.849	1623.36
716.04	1674.12
716.232	1647.38
716.423	1675.87
716.615	1599.92
716.806	1583.25
716.998	1560.59
717.189	1526.49
717.381	1452.09
717.572	1405.98
717.763	1450.54
717.955	1436.59
718.146	1420.31
718.337	1392.03
718.528	1361.8
718.72	1318.79
718.911	1371.68
719.102	1317.05
719.293	1373.62
719.485	1328.48
719.676	1338.74
719.867	1334.09
720.058	1348.63
720.249	1329.64
720.44	1325.18
720.632	1403.07
720.823	1473.98
721.014	1564.27
721.205	1553.42
721.396	1637.5
721.587	1703.76
721.778	1735.73
721.969	1793.47
722.16	1820.59
722.351	1850.82
722.542	1936.07
722.733	1939.17
722.924	1872.52
723.115	1888.6
723.305	1897.12
723.496	1935.49
723.687	1781.65
723.878	1845.78
724.069	1810.13
724.26	1820.98
724.45	1792.5
724.641	1796.96
724.832	1810.33
725.023	1777.78
725.213	1783.01
725.404	1770.99
725.595	1769.06
725.785	1774.87
725.976	1851.79
726.167	1828.54
726.357	1831.25
726.548	1953.5
726.739	1833.38
726.929	1890.34
727.12	1922.89
727.31	1947.89
727.501	1885.89
727.691	1928.12
727.882	1925.61
728.072	2012.99
728.263	1961.45
728.453	1997.49
728.644	2013.37
728.834	2036.04
729.024	1954.09
729.215	1976.75
729.405	2003.49
729.596	2134.27
729.786	2105.98
729.976	2135.63
730.167	2122.65
730.357	2082.73
730.547	2087
730.737	2158.3
730.928	2183.1
731.118	2212.16
731.308	2203.83
731.498	2179.22
731.688	2273.38
731.879	2282.68
732.069	2312.13
732.259	2343.71
732.449	2389.44
732.639	2427.99
732.829	2425.47
733.019	2508.2
733.209	2578.15
733.399	2582.6
733.589	2642.08
733.779	2687.03
733.969	2657.39
734.159	2740.12
734.349	2767.24
734.539	2828.47
734.729	2765.11
734.919	2861.4
735.109	2890.47
735.299	2811.03
735.488	2864.7
735.678	2836.22
735.868	2854.43
736.058	2853.46
736.248	2850.94
736.437	2809.29
736.627	2781.39
736.817	2893.95
737.007	2876.52
737.196	2926.31
737.386	2882.14
737.576	2857.72
737.765	2958.86
737.955	2933.09
738.144	3036.55
738.334	2984.63
738.524	2975.33
738.713	3025.9
738.903	3001.48
739.092	3038.88
739.282	3007.1
739.471	3044.88
739.661	3045.27
739.85	3108.24
740.04	3100.88
740.229	3108.63
740.419	3145.05
740.608	3163.07
740.797	3120.25
740.987	3177.99
741.176	3196.39
741.365	3128
741.555	3119.28
741.744	3223.91
741.933	3192.32
742.123	3214.99
742.312	3239.02
742.501	3240.57
742.69	3239.99
742.88	3224.29
743.069	3317.68
743.258	3305.86
743.447	3310.32
743.636	3318.26
743.825	3287.45
744.014	3311.67
744.204	3320.39
744.393	3316.13
744.582	3350.81
744.771	3323.49
744.96	3315.16
745.149	3343.45
745.338	3305.09
745.527	3373.28
745.716	3319.23
745.905	3343.45
746.094	3388.78
746.283	3340.74
746.471	3382.97
746.66	3448.65
746.849	3413.78
747.038	3427.15
747.227	3349.65
747.416	3441.87
747.604	3377.93
747.793	3362.63
747.982	3380.45
748.171	3446.33
748.359	3401.77
748.548	3370.18
748.737	3425.98
748.926	3398.86
749.114	3295.98
749.303	3370.57
749.491	3397.12
749.68	3298.11
749.869	3385.1
750.057	3331.82
750.246	3348.1
750.434	3333.57
750.623	3351.2
750.811	3323.1
751	3359.92
751.188	3322.52
751.377	3369.22
751.565	3347.52
751.754	3305.47
751.942	3319.62
752.131	3385.49
752.319	3320.39
752.507	3350.81
752.696	3360.3
752.884	3337.05
753.072	3340.15
753.261	3317.29
753.449	3305.86
753.637	3298.69
753.825	3376.19
754.014	3347.9
754.202	3344.03
754.39	3359.33
754.578	3338.8
754.766	3306.25
754.955	3270.4
755.143	3360.88
755.331	3309.74
755.519	3324.46
755.707	3277.96
755.895	3286.1
756.083	3248.12
756.271	3230.3
756.459	3231.66
756.647	3252.19
756.835	3226.04
757.023	3251.22
757.211	3204.92
757.399	3230.3
757.587	3215.77
757.775	3191.16
757.963	3226.81
758.151	3172.37
758.339	3172.17
758.526	3170.43
758.714	3215.38
758.902	3087.51
759.09	2969.71
759.278	2780.42
759.465	2593.26
759.653	2262.92
759.841	1979.08
760.028	1697.37
760.216	1478.82
760.404	1418.38
760.591	1172.51
760.779	936.14
760.967	832.87
761.154	709.84
761.342	728.25
761.529	730.57
761.717	792.77
761.905	749.75
762.092	847.6
762.28	776.3
762.467	764.28
762.655	695.5
762.842	706.16
763.029	741.23
763.217	743.75
763.404	783.85
763.592	805.17
763.779	747.23
763.966	775.91
764.154	812.33
764.341	884.21
764.528	892.93
764.716	969.85
764.903	1010.15
765.09	1049.87
765.277	1091.33
765.465	1244.2
765.652	1306
765.839	1387.38
766.026	1497.62
766.213	1526.1
766.4	1620.84
766.588	1842.88
766.775	1863.02
766.962	1968.62
767.149	2019.57
767.336	2185.42
767.523	2134.66
767.71	2273.96
767.897	2366.57
768.084	2422.18
768.271	2474.49
768.458	2519.83
768.645	2625.81
768.832	2575.24
769.019	2584.35
769.206	2633.95
769.392	2705.44
769.579	2780.81
769.766	2744.38
769.953	2754.84
770.14	2836.6
770.327	2770.34
770.513	2856.95
770.7	2870.7
770.887	2867.02
771.073	2878.26
771.26	2847.84
771.447	2799.41
771.634	2836.02
771.82	2899.19
772.007	2834.47
772.193	2877.29
772.38	2899.96
772.567	2848.04
772.753	2855.01
772.94	2878.07
773.126	2910.03
773.313	2915.65
773.499	2912.94
773.686	2898.99
773.872	2880
774.059	2902.67
774.245	2815.29
774.432	2852.88
774.618	2807.35
774.804	2867.6
774.991	2817.04
775.177	2845.13
775.363	2815.68
775.55	2864.31
775.736	2802.51
775.922	2844.16
776.109	2793.01
776.295	2805.02
776.481	2829.24
776.667	2854.82
776.853	2833.31
777.04	2800.76
777.226	2784.29
777.412	2880.97
777.598	2799.41
777.784	2746.51
777.97	2783.13
778.156	2802.31
778.342	2769.57
778.528	2780.42
778.715	2712.99
778.901	2734.31
779.087	2813.55
779.272	2720.55
779.458	2707.18
779.644	2738.18
779.83	2701.76
780.016	2767.05
780.202	2691.68
780.388	2716.29
780.574	2636.08
780.76	2643.83
780.946	2747.87
781.131	2690.71
781.317	2644.79
781.503	2657.19
781.689	2636.08
781.874	2763.95
782.06	2648.09
782.246	2710.86
782.432	2642.28
782.617	2677.73
782.803	2712.8
782.989	2608.76
783.174	2657.78
783.36	2567.49
783.545	2606.43
783.731	2626.39
783.916	2539.98
784.102	2605.85
784.288	2572.72
784.473	2596.16
784.659	2530.87
784.844	2591.13
785.029	2560.9
785.215	2514.21
785.4	2481.47
785.586	2582.41
785.771	2461.9
785.956	2517.89
786.142	2471.39
786.327	2480.5
786.512	2513.82
786.698	2474.49
786.883	2430.9
787.068	2471
787.254	2462.48
787.439	2439.42
787.624	2396.41
787.809	2458.02
787.994	2440.97
788.18	2476.04
788.365	2368.71
788.55	2424.31
788.735	2402.03
788.92	2383.43
789.105	2375.87
789.29	2379.36
789.475	2323.56
789.66	2323.76
789.845	2322.79
790.03	2314.65
790.215	2335.38
790.4	2381.69
790.585	2415.2
790.77	2342.16
790.955	2268.93
791.14	2326.47
791.325	2324.34
791.51	2248.39
791.695	2329.57
791.879	2286.56
792.064	2275.9
792.249	2335.38
792.434	2274.16
792.618	2266.6
792.803	2319.69
792.988	2281.33
793.173	2292.95
793.357	2358.63
793.542	2272.61
793.727	2340.42
793.911	2321.62
794.096	2301.86
794.281	2333.64
794.465	2416.95
794.65	2302.44
794.834	2356.69
795.019	2361.54
795.203	2347.59
795.388	2346.81
795.572	2398.74
795.757	2344.49
795.941	2367.54
796.126	2332.47
796.31	2272.03
796.494	2325.5
796.679	2281.33
796.863	2263.69
797.048	2356.69
797.232	2318.52
797.416	2366.77
797.601	2327.63
797.785	2416.75
797.969	2387.69
798.153	2325.69
798.338	2368.32
798.522	2351.85
798.706	2374.52
798.89	2400.87
799.074	2464.61
799.258	2434.58
799.443	2376.84
799.627	2406.87
799.811	2431.67
799.995	2377.23
800.179	2314.26
800.363	2364.64
800.547	2371.42
800.731	2389.82
800.915	2294.31
801.099	2336.54
801.283	2305.35
801.467	2341.39
801.651	2326.66
801.835	2419.85
802.019	2332.09
802.202	2371.61
802.386	2300.7
802.57	2265.24
802.754	2341.39
802.938	2289.46
803.121	2322.01
803.305	2367.35
803.489	2327.05
803.673	2355.72
803.856	2339.26
804.04	2352.62
804.224	2350.3
804.407	2326.66
804.591	2297.21
804.775	2311.16
804.958	2285.39
805.142	2445.24
805.326	2316.2
805.509	2342.74
805.693	2340.81
805.876	2422.95
806.06	2349.52
806.243	2328.21
806.427	2374.52
806.61	2409
806.794	2347.59
806.977	2368.51
807.16	2351.27
807.344	2387.11
807.527	2361.15
807.71	2335.96
807.894	2371.42
808.077	2366.57
808.26	2359.6
808.444	2296.24
808.627	2399.51
808.81	2308.45
808.993	2264.08
809.177	2258.46
809.36	2264.28
809.543	2273.96
809.726	2223.78
809.909	2242.38
810.092	2178.83
810.276	2154.81
810.459	2194.14
810.642	2165.27
810.825	2150.35
811.008	2170.7
811.191	2066.65
811.374	2049.99
811.557	2095.33
811.74	2145.12
811.923	2081.57
812.106	2065.88
812.289	1995.35
812.472	2032.94
812.654	2046.5
812.837	1979.47
813.02	1908.17
813.203	1956.99
813.386	1843.07
813.569	1810.71
813.751	1739.41
813.934	1790.56
814.117	1777.39
814.3	1743.87
814.482	1699.89
814.665	1653.2
814.848	1636.34
815.03	1577.44
815.213	1608.05
815.396	1562.52
815.578	1523.97
815.761	1489.87
815.943	1615.03
816.126	1498.97
816.309	1442.98
816.491	1396.09
816.674	1346.3
816.856	1421.47
817.039	1410.24
817.221	1495.87
817.403	1409.08
817.586	1456.54
817.768	1461.58
817.951	1386.79
818.133	1389.31
818.315	1379.82
818.498	1415.66
818.68	1497.62
818.862	1442.98
819.045	1498.59
819.227	1487.16
819.409	1452.28
819.591	1468.36
819.774	1421.09
819.956	1427.48
820.138	1505.76
820.32	1492.39
820.502	1552.45
820.684	1603.6
820.866	1603.79
821.048	1674.32
821.231	1663.27
821.413	1631.5
821.595	1626.27
821.777	1655.33
821.959	1656.88
822.141	1684
822.323	1567.56
822.505	1524.74
822.686	1446.08
822.868	1395.9
823.05	1288.18
823.232	1273.84
823.414	1211.45
823.596	1309.88
823.778	1286.43
823.96	1338.16
824.141	1312.4
824.323	1320.34
824.505	1408.49
824.687	1478.24
824.868	1468.56
825.05	1562.72
825.232	1598.56
825.413	1659.98
825.595	1594.3
825.777	1542.57
825.958	1605.34
826.14	1578.02
826.321	1668.12
826.503	1564.07
826.685	1626.85
826.866	1646.61
827.048	1605.73
827.229	1561.94
827.411	1536.56
827.592	1499.36
827.773	1494.13
827.955	1468.36
828.136	1449.57
828.318	1405.01
828.499	1477.08
828.68	1383.5
828.862	1435.62
829.043	1459.06
829.224	1426.71
829.406	1383.89
829.587	1420.12
829.768	1393.77
829.949	1419.15
830.131	1419.92
830.312	1503.62
830.493	1453.06
830.674	1462.55
830.855	1479.41
831.036	1436.39
831.218	1477.08
831.399	1515.25
831.58	1445.31
831.761	1464.49
831.942	1466.81
832.123	1460.03
832.304	1394.74
832.485	1433.29
832.666	1448.79
832.847	1471.07
833.028	1461.58
833.209	1425.16
833.389	1431.36
833.57	1364.71
833.751	1424.57
833.932	1436.59
834.113	1440.66
834.294	1434.46
834.475	1472.04
834.655	1532.3
834.836	1473.59
835.017	1491.22
835.198	1444.92
835.378	1479.41
835.559	1529.59
835.74	1449.18
835.92	1450.92
836.101	1442.79
836.281	1509.82
836.462	1500.72
836.643	1552.06
836.823	1514.47
837.004	1502.46
837.184	1569.5
837.365	1511.57
837.545	1554
837.726	1496.46
837.906	1592.17
838.087	1498.59
838.267	1523.97
838.448	1472.43
838.628	1487.93
838.808	1509.05
838.989	1571.24
839.169	1496.07
839.349	1531.91
839.53	1536.95
839.71	1536.95
839.89	1510.02
840.07	1600.88
840.251	1505.76
840.431	1539.85
840.611	1533.85
840.791	1495.49
840.971	1520.48
841.151	1510.21
841.332	1470.49
841.512	1568.34
841.692	1435.62
841.872	1504.79
842.052	1487.74
842.232	1538.11
842.412	1445.5
842.592	1465.46
842.772	1493.36
842.952	1530.75
843.132	1458.29
843.312	1466.81
843.492	1467.01
843.672	1484.06
843.851	1429.81
844.031	1469.91
844.211	1454.22
844.391	1441.62
844.571	1459.84
844.751	1470.88
844.93	1447.82
845.11	1437.75
845.29	1490.64
845.47	1480.18
845.649	1450.73
845.829	1498.78
846.009	1469.52
846.188	1489.48
846.368	1424.57
846.547	1442.21
846.727	1485.99
846.907	1423.41
847.086	1459.64
847.266	1487.16
847.445	1458.48
847.625	1430.58
847.804	1403.84
847.984	1447.24
848.163	1435.42
848.343	1429.81
848.522	1449.37
848.701	1450.92
848.881	1424.57
849.06	1424.96
849.239	1412.56
849.419	1430.97
849.598	1358.12
849.777	1340.88
849.957	1387.96
850.136	1301.74
850.315	1279.85
850.494	1257.37
850.674	1323.05
850.853	1349.79
851.032	1281.98
851.211	1352.11
851.39	1367.42
851.569	1294.76
851.748	1261.83
851.927	1331.19
852.107	1332.54
852.286	1300.19
852.465	1251.56
852.644	1323.83
852.823	1327.9
853.002	1299.03
853.181	1357.15
853.359	1310.46
853.538	1278.3
853.717	1348.24
853.896	1263.38
854.075	1191.5
854.254	1158.17
854.433	1121.94
854.611	1169.6
854.79	1119.81
854.969	1151.2
855.148	1149.84
855.327	1129.89
855.505	1183.94
855.684	1159.53
855.863	1162.82
856.041	1168.25
856.22	1237.42
856.399	1206.61
856.577	1275.2
856.756	1258.53
856.934	1373.23
857.113	1366.06
857.291	1263.76
857.47	1266.28
857.648	1279.65
857.827	1250.78
858.005	1314.53
858.184	1267.45
858.362	1342.81
858.541	1255.82
858.719	1278.88
858.898	1251.95
859.076	1258.34
859.254	1303.29
859.433	1235.67
859.611	1243.62
859.789	1221.14
859.967	1277.52
860.146	1276.94
860.324	1197.5
860.502	1262.21
860.68	1177.55
860.859	1207.58
861.037	1213.97
861.215	1233.73
861.393	1210.68
861.571	1230.83
861.749	1197.31
861.927	1224.43
862.105	1210.87
862.283	1173.28
862.461	1170.18
862.639	1180.26
862.817	1231.8
862.995	1209.32
863.173	1162.63
863.351	1216.49
863.529	1212.23
863.707	1227.34
863.885	1211.07
864.063	1147.13
864.241	1178.52
864.418	1193.05
864.596	1153.91
864.774	1129.3
864.952	1153.14
865.129	1219.2
865.307	1143.64
865.485	1093.85
865.663	1144.8
865.84	1095.79
866.018	1131.44
866.196	1002.98
866.373	995.23
866.551	972.37
866.728	959.97
866.906	983.99
867.084	1039.6
867.261	1019.84
867.439	1060.91
867.616	1086.68
867.794	1046.38
867.971	1089.78
868.149	1094.82
868.326	1145.77
868.503	1110.51
868.681	1075.05
868.858	1068.86
869.035	1055.49
869.213	1097.14
869.39	1065.37
869.567	1130.47
869.745	1059.36
869.922	1085.52
870.099	1104.12
870.276	1093.85
870.454	1096.95
870.631	1129.69
870.808	1069.24
870.985	1096.56
871.162	1150.42
871.339	1083.77
871.517	1031.85
871.694	1042.7
871.871	1061.3
872.048	1040.57
872.225	1027.2
872.402	1055.1
872.579	996.78
872.756	1058.2
872.933	1034.37
873.11	1036.31
873.287	1033.98
873.463	1041.54
873.64	987.67
873.817	1040.18
873.994	1028.94
874.171	1009.18
874.348	1020.22
874.524	961.13
874.701	1019.06
874.878	946.02
875.055	978.38
875.231	1006.66
875.408	1009.57
875.585	958.81
875.762	1007.63
875.938	967.91
876.115	984.38
876.291	981.28
876.468	959.97
876.645	935.56
876.821	945.44
876.998	960.36
877.174	999.3
877.351	970.24
877.527	954.35
877.704	987.48
877.88	972.56
878.057	973.73
878.233	1008.99
878.409	936.33
878.586	966.36
878.762	946.99
878.938	959.39
879.115	917.73
879.291	951.83
879.467	878.4
879.644	926.06
879.82	945.05
879.996	931.68
880.172	892.16
880.349	924.9
880.525	940.59
880.701	882.66
880.877	878.6
881.053	918.7
881.229	879.76
881.405	967.14
881.581	870.26
881.757	908.43
881.933	922.77
882.109	929.16
882.285	902.43
882.461	872.01
882.637	896.42
882.813	814.46
882.989	884.99
883.165	940.4
883.341	867.75
883.517	915.99
883.693	877.63
883.869	909.01
884.044	866
884.22	935.17
884.396	912.69
884.572	924.9
884.747	960.55
884.923	926.84
885.099	894.68
885.275	928.39
885.45	915.79
885.626	887.9
885.801	872.98
885.977	889.83
886.153	831.13
886.328	907.66
886.504	862.13
886.679	899.52
886.855	862.51
887.03	898.94
887.206	956.68
887.381	925.87
887.557	918.12
887.732	910.95
887.908	902.62
888.083	917.54
888.258	889.64
888.434	891.77
888.609	912.5
888.784	927.61
888.96	869.3
889.135	849.15
889.31	876.46
889.485	886.54
889.661	887.12
889.836	945.24
890.011	936.53
890.186	898.16
890.361	850.89
890.537	911.73
890.712	867.55
890.887	913.08
891.062	902.81
891.237	957.45
891.412	860.58
891.587	889.06
891.762	914.63
891.937	935.75
892.112	835.97
892.287	848.76
892.462	827.83
892.637	831.32
892.812	815.82
892.987	821.44
893.161	784.82
893.336	809.81
893.511	798.38
893.686	813.69
893.861	804.58
894.035	794.32
894.21	816.79
894.385	760.8
894.56	822.8
894.734	718.75
894.909	701.9
895.084	732.9
895.258	739.29
895.433	754.79
895.608	706.35
895.782	648.81
895.957	684.85
896.131	689.11
896.306	617.23
896.48	614.32
896.655	644.16
896.829	559.49
897.004	595.34
897.178	583.91
897.353	573.44
897.527	610.64
897.701	579.26
897.876	540.51
898.05	614.71
898.224	632.15
898.399	639.32
898.573	562.79
898.747	478.31
898.921	556.59
899.096	457.78
899.27	482.77
899.444	482.77
899.618	528.49
899.792	505.63
899.967	521.13
900.141	546.71
900.315	502.34
900.489	512.41
900.663	519.78
900.837	520.94
901.011	460.29
901.185	557.36
901.359	534.69
901.533	514.74
901.707	544.58
901.881	513.77
902.055	461.84
902.229	513.96
902.403	567.44
902.576	493.81
902.75	519.19
902.924	627.11
903.098	589.33
903.272	607.93
903.446	607.93
903.619	632.92
903.793	646.1
903.967	618.97
904.14	682.72
904.314	661.02
904.488	645.13
904.661	663.54
904.835	658.3
905.009	686.01
905.182	720.3
905.356	658.3
905.529	670.12
905.703	659.66
905.876	625.37
906.05	590.69
906.223	561.43
906.397	539.73
906.57	530.43
906.744	483.74
906.917	495.94
907.09	517.45
907.264	511.06
907.437	457.97
907.61	451.77
907.784	475.02
907.957	487.42
908.13	448.67
908.304	494.39
908.477	449.83
908.65	473.28
908.823	416.12
908.996	515.71
909.17	465.91
909.343	455.84
909.516	427.36
909.689	432.98
909.862	416.7
910.035	450.22
910.208	412.44
910.381	406.82
910.554	494.78
910.727	449.25
910.9	423.48
911.073	433.95
911.246	498.46
911.419	480.83
911.592	510.09
911.765	422.9
911.938	432.98
912.11	458.94
912.283	466.3
912.456	484.71
912.629	457.78
912.802	417.09
912.974	397.33
913.147	367.68
913.32	336.88
913.493	367.88
913.665	349.67
913.838	407.01
914.01	406.63
914.183	404.11
914.356	370.2
914.528	442.28
914.701	440.73
914.873	448.09
915.046	384.15
915.218	347.34
915.391	297.16
915.563	324.87
915.736	368.46
915.908	385.7
916.081	371.75
916.253	385.12
916.425	381.83
916.598	408.18
916.77	406.82
916.942	351.41
917.115	287.67
917.287	391.13
917.459	333.2
917.632	318.28
917.804	279.14
917.976	368.85
918.148	367.49
918.32	324.87
918.493	418.83
918.665	422.9
918.837	395
919.009	459.33
919.181	440.53
919.353	395
919.525	406.82
919.697	387.83
919.869	405.08
920.041	460.1
920.213	514.35
920.385	474.44
920.557	415.93
920.729	419.22
920.901	415.93
921.073	422.71
921.244	384.93
921.416	436.46
921.588	417.48
921.76	374.08
921.932	465.91
922.103	422.9
922.275	413.6
922.447	404.69
922.619	343.85
922.79	392.1
922.962	392.87
923.134	408.56
923.305	354.51
923.477	367.49
923.648	349.67
923.82	365.75
923.991	313.82
924.163	303.17
924.335	354.7
924.506	333.58
924.677	393.45
924.849	301.81
925.02	370.4
925.192	363.62
925.363	366.91
925.535	345.4
925.706	336.88
925.877	397.71
926.049	326.8
926.22	367.88
926.391	342.69
926.562	396.36
926.734	327.38
926.905	378.34
927.076	274.1
927.247	317.31
927.419	283.4
927.59	308.59
927.761	299.1
927.932	276.82
928.103	277.4
928.274	249.3
928.445	247.37
928.616	255.31
928.787	259.77
928.958	278.75
929.129	264.03
929.3	235.16
929.471	183.43
929.642	151.46
929.813	129.57
929.984	205.13
930.155	141.97
930.326	175.49
930.496	162.31
930.667	114.46
930.838	137.12
931.009	107.87
931.18	129.57
931.35	133.06
931.521	138.09
931.692	78.81
931.863	74.74
932.033	106.51
932.204	102.44
932.374	128.02
932.545	60.21
932.716	119.49
932.886	95.28
933.057	24.75
933.227	55.56
933.398	123.95
933.568	53.43
933.739	-2.57
933.909	40.25
934.08	76.68
934.25	10.03
934.421	24.17
934.591	42.38
934.761	47.23
934.932	-10.7
935.102	39.09
935.272	16.81
935.443	41.22
935.613	31.34
935.783	46.45
935.953	-1.4
936.123	158.05
936.294	25.53
936.464	-1.79
936.634	20.49
936.804	10.8
936.974	-11.48
937.144	34.63
937.314	25.72
937.484	32.69
937.655	2.47
937.825	72.99
937.995	17
938.165	62.34
938.334	17
938.504	34.63
938.674	23.39
938.844	80.16
939.014	97.99
939.184	86.94
939.354	124.53
939.524	103.8
939.694	74.54
939.863	74.16
940.033	151.66
940.203	121.82
940.373	113.68
940.542	112.13
940.712	62.14
940.882	103.03
941.051	104.19
941.221	95.47
941.391	121.43
941.56	37.34
941.73	61.56
941.899	165.02
942.069	63.11
942.238	118.91
942.408	48.39
942.577	110.58
942.747	84.04
942.916	29.21
943.086	90.63
943.255	95.47
943.425	88.11
943.594	58.27
943.763	-9.35
943.933	13.71
944.102	-8.38
944.271	50.13
944.441	89.27
944.61	45.29
944.779	63.5
944.948	128.79
945.117	32.89
945.287	42.96
945.456	3.44
945.625	8.48
945.794	73.19
945.963	33.08
946.132	64.47
946.301	52.26
946.47	102.83
946.639	8.86
946.808	32.5
946.977	84.43
947.146	109.81
947.315	44.13
947.484	38.31
947.653	59.04
947.822	52.46
947.991	10.41
948.16	110.19
948.329	80.94
948.498	68.93
948.666	67.57
948.835	88.49
949.004	20.3
949.173	17.39
949.341	80.36
949.51	86.56
949.679	75.13
949.847	92.56
950.016	120.27
950.185	131.12
950.353	35.99
950.522	56.72
950.69	97.21
950.859	27.46
951.028	97.41
951.196	78.81
951.365	32.31
951.533	59.24
951.701	74.54
951.87	81.52
952.038	-0.82
952.207	65.63
952.375	94.69
952.543	35.21
952.712	61.18
952.88	25.14
953.048	101.28
953.217	56.33
953.385	56.33
953.553	97.99
953.721	11.77
953.89	47.61
954.058	13.32
954.226	27.66
954.394	48
954.562	39.67
954.73	36.18
954.898	48.39
955.067	90.63
955.235	54.2
955.403	111.74
955.571	141.19
955.739	54.01
955.907	47.81
956.075	23.78
956.243	40.06
956.41	95.66
956.578	19.33
956.746	3.05
956.914	48.39
957.082	72.41
957.25	65.83
957.418	43.54
957.585	56.14
957.753	103.03
957.921	42.77
958.089	50.91
958.256	69.51
958.424	57.11
958.592	86.94
958.759	37.54
958.927	93.73
959.095	59.63
959.262	57.3
959.43	56.53
959.597	30.76
959.765	67.18
959.932	35.41
960.1	98.38
960.267	56.53
960.435	51.49
960.602	111.36
960.77	47.42
960.937	25.33
961.104	63.11
961.272	44.32
961.439	36.96
961.606	80.36
961.774	96.05
961.941	59.63
962.108	64.47
962.275	74.16
962.443	113.87
962.61	61.18
962.777	118.91
962.944	78.81
963.111	90.04
963.278	85.98
963.446	95.66
963.613	59.24
963.78	91.01
963.947	87.53
964.114	81.33
964.281	161.92
964.448	92.95
964.615	31.34
964.782	67.76
964.949	83.46
965.116	113.68
965.282	151.07
965.449	72.41
965.616	60.01
965.783	115.23
965.95	96.83
966.117	32.31
966.283	59.24
966.45	74.35
966.617	93.73
966.784	114.26
966.95	116.39
967.117	130.54
967.284	62.73
967.45	64.08
967.617	114.07
967.784	113.29
967.95	110.19
968.117	84.23
968.283	113.29
968.45	172.58
968.616	91.79
968.783	133.25
968.949	70.28
969.116	134.02
969.282	83.26
969.449	111.94
969.615	99.73
969.781	67.38
969.948	75.9
970.114	87.33
970.28	137.51
970.447	102.44
970.613	139.84
970.779	91.98
970.945	99.34
971.112	112.91
971.278	113.49
971.444	93.34
971.61	119.49
971.776	91.59
971.942	123.76
972.108	110.97
972.275	94.89
972.441	108.45
972.607	139.64
972.773	74.16
972.939	103.61
973.105	89.08
973.271	52.65
973.437	52.46
973.602	70.28
973.768	108.26
973.934	86.56
974.1	119.3
974.266	22.81
974.432	110
974.598	78.81
974.763	127.44
974.929	78.23
975.095	136.74
975.261	76.09
975.426	41.03
975.592	89.08
975.758	157.08
975.923	44.9
976.089	61.56
976.255	117.56
976.42	88.69
976.586	108.45
976.751	85.59
976.917	172.39
977.082	105.16
977.248	36.38
977.413	37.15
977.579	69.12
977.744	89.46
977.91	36.38
978.075	27.46
978.24	108.45
978.406	69.89
978.571	43.16
978.736	70.86
978.902	108.06
979.067	62.92
979.232	24.94
979.397	91.98
979.563	86.56
979.728	66.02
979.893	72.22
980.058	72.99
980.223	102.83
980.388	68.15
980.554	91.21
980.719	66.6
980.884	84.23
981.049	124.92
981.214	66.79
981.379	92.76
981.544	69.89
981.709	86.36
981.874	66.41
982.039	82.1
982.204	122.4
982.368	81.91
982.533	56.14
982.698	103.99
982.863	106.13
983.028	96.44
983.193	108.64
983.357	65.63
983.522	93.14
983.687	78.03
983.852	70.67
984.016	53.04
984.181	79.97
984.346	77.06
984.51	84.04
984.675	79.19
984.839	80.94
985.004	74.93
985.168	123.76
985.333	102.25
985.498	66.79
985.662	95.28
985.827	95.86
985.991	83.07
986.155	67.96
986.32	127.44
986.484	144.87
986.649	107.87
986.813	53.62
986.977	100.31
987.142	97.21
987.306	55.94
987.47	76.87
987.634	82.49
987.799	107.09
987.963	100.7
988.127	109.03
988.291	131.12
988.455	78.81
988.62	50.33
988.784	124.92
988.948	88.88
989.112	54.78
989.276	69.7
989.44	93.73
989.604	62.53
989.768	61.18
989.932	127.44
990.096	58.85
990.26	44.32
990.424	52.65
990.588	97.41
990.752	128.21
990.915	97.41
991.079	66.6
991.243	43.54
991.407	105.54
991.571	73.19
991.734	86.36
991.898	91.59
992.062	163.86
992.226	63.11
992.389	41.22
992.553	37.34
992.717	65.05
992.88	78.23
993.044	73.19
993.207	80.36
993.371	102.06
993.535	92.76
993.698	97.21
993.862	99.93
994.025	82.29
994.189	85.2
994.352	65.83
994.515	95.66
994.679	99.15
994.842	77.45
995.006	95.47
995.169	63.69
995.332	49.94
995.496	86.56
995.659	19.13
995.822	61.76
995.985	77.26
996.149	129.76
996.312	89.27
996.475	118.14
996.638	27.46
996.801	95.66
996.964	136.35
997.128	68.15
997.291	55.36
997.454	92.18
997.617	34.63
997.78	78.81
997.943	50.13
998.106	99.15
998.269	66.02
998.432	64.08
998.595	61.56
998.758	16.61
998.92	29.59
999.083	25.72
999.246	54.39
999.409	34.83
999.572	5.96
999.735	40.64
999.897	86.56
1000.06	40.64
1000.223	25.72
1000.386	97.21
1000.548	82.68
1000.711	72.61
1000.874	69.51
1001.036	12.55
1001.199	101.86
1001.361	25.91
1001.524	65.44
1001.687	85.2
1001.849	17.97
1002.012	53.62
1002.174	66.02
1002.337	68.54
1002.499	56.33
1002.661	87.53
1002.824	32.89
1002.986	34.83
1003.149	58.27
1003.311	15.45
1003.473	103.03
1003.636	42.96
1003.798	79
1003.96	73.58
1004.123	35.99
1004.285	40.44
1004.447	41.8
1004.609	43.16
1004.771	114.26
1004.933	13.9
1005.096	38.7
1005.258	0.53
1005.42	31.73
1005.582	91.4
1005.744	62.34
1005.906	19.71
1006.068	53.23
1006.23	15.84
1006.392	0.15
1006.554	26.3
1006.716	68.15
1006.878	48.19
1007.04	35.79
1007.202	32.89
1007.363	40.44
1007.525	43.16
1007.687	58.27
1007.849	78.61
1008.011	1.31
1008.172	0.34
1008.334	36.76
1008.496	61.76
1008.658	6.93
1008.819	30.18
1008.981	-18.45
1009.143	27.27
1009.304	35.21
1009.466	59.04
1009.627	104.58
1009.789	134.22
1009.95	32.5
1010.112	19.71
1010.273	43.93
1010.435	33.47
1010.596	43.35
1010.758	24.17
1010.919	34.63
1011.081	7.12
1011.242	47.61
1011.403	48.39
1011.565	28.43
1011.726	56.53
1011.887	0.53
1012.049	17.58
1012.21	55.94
1012.371	79.97
1012.532	-30.47
1012.693	26.69
1012.855	19.91
1013.016	23.78
1013.177	87.53
1013.338	41.03
1013.499	84.04
1013.66	47.03
1013.821	51.29
1013.982	30.56
1014.143	13.32
1014.304	13.32
1014.465	52.84
1014.626	50.71
1014.787	18.94
1014.948	115.42
1015.109	-7.6
1015.27	54.78
1015.431	13.51
1015.592	7.51
1015.752	65.44
1015.913	19.91
1016.074	56.33
1016.235	37.93
1016.395	43.93
1016.556	4.8
1016.717	4.8
1016.877	88.3
1017.038	27.85
1017.199	20.88
1017.359	41.03
1017.52	47.03
1017.681	41.99
1017.841	28.43
1018.002	39.86
1018.162	36.38
1018.323	59.63
1018.483	36.38
1018.644	17.78
1018.804	3.83
1018.964	-16.9
1019.125	17.97
1019.285	48.39
1019.446	11.58
1019.606	4.8
1019.766	-18.07
1019.926	34.63
1020.087	43.93
1020.247	1.89
1020.407	31.73
1020.567	67.76
1020.728	10.41
1020.888	10.22
1021.048	4.21
1021.208	-4.7
1021.368	-0.44
1021.528	47.61
1021.688	56.91
1021.848	56.91
1022.008	7.12
1022.168	28.04
1022.328	46.64
1022.488	44.13
1022.648	-8.57
1022.808	28.04
1022.968	42.96
1023.128	-8.38
1023.288	21.26
1023.448	11.96
1023.608	24.94
1023.767	34.05
1023.927	2.66
1024.087	4.99
1024.247	-11.87
1024.406	-5.09
1024.566	-20.39
1024.726	-8.77
1024.885	31.73
1025.045	44.71
1025.205	0.92
1025.364	23.78
1025.524	14.68
1025.683	-1.6
1025.843	50.33
1026.003	3.83
1026.162	66.6
1026.321	63.69
1026.481	29.59
1026.64	-4.7
1026.8	17.78
1026.959	19.52
1027.119	22.62
1027.278	36.96
1027.437	11
1027.597	23.98
1027.756	33.28
1027.915	49.36
1028.074	9.25
1028.234	-19.23
1028.393	19.13
1028.552	-7.99
1028.711	-58.75
1028.87	52.65
1029.03	-29.5
1029.189	19.71
1029.348	-56.24
1029.507	-11.48
1029.666	0.15
1029.825	-34.92
1029.984	19.33
1030.143	23.78
1030.302	8.86
1030.461	-47.52
1030.62	12.35
1030.779	39.48
1030.938	-33.95
1031.097	-18.26
1031.255	34.44
1031.414	51.68
1031.573	61.76
1031.732	-25.24
1031.891	18.36
1032.049	50.33
1032.208	31.53
1032.367	-4.31
1032.525	11.58
1032.684	-2.76
1032.843	5.18
1033.001	-21.75
1033.16	156.11
1033.319	38.89
1033.477	26.69
1033.636	0.92
1033.794	-21.55
1033.953	49.55
1034.111	38.7
1034.27	-38.22
1034.428	12.55
1034.587	0.15
1034.745	50.13
1034.903	2.47
1035.062	20.1
1035.22	-19.62
1035.378	48.97
1035.537	-15.55
1035.695	34.44
1035.853	46.45
1036.011	53.62
1036.17	19.71
1036.328	-33.37
1036.486	59.43
1036.644	43.54
1036.802	-85.1
1036.96	-14.97
1037.119	5.38
1037.277	-6.83
1037.435	-19.62
1037.593	-29.89
1037.751	5.96
1037.909	30.95
1038.067	30.95
