Data from oakcork_FLMT105791__193__17-32-06-057.txt Node

Date: Mon Mar 20 17:32:06 GMT 2023
User: antho
Spectrometer: FLMT10579
Trigger mode: 0
Integration Time (sec): 1.000000E-1
Scans to average: 10
Electric dark correction enabled: true
Nonlinearity correction enabled: false
Boxcar width: 0
XAxis mode: Wavelengths
Number of Pixels in Spectrum: 3648
>>>>>Begin Spectral Data<<<<<
345.248	-132.59
345.464	-132.59
345.681	-132.59
345.898	-150.41
346.114	-141.31
346.331	-33
346.548	26.48
346.764	10.59
346.981	20.28
347.197	-21.18
347.414	11.37
347.631	-33.39
347.847	53.6
348.064	-5.49
348.28	6.52
348.497	-36.3
348.713	0.52
348.93	39.07
349.146	16.99
349.363	-24.86
349.579	14.08
349.796	-2.78
350.012	14.85
350.229	49.53
350.445	6.14
350.661	-5.3
350.878	27.84
351.094	11.37
351.311	10.4
351.527	17.57
351.743	-11.3
351.96	12.14
352.176	31.52
352.392	3.42
352.609	29.19
352.825	-12.85
353.041	22.6
353.257	10.2
353.474	8.85
353.69	23.38
353.906	15.44
354.122	-45.79
354.339	64.65
354.555	-2.97
354.771	-25.25
354.987	42.17
355.203	55.15
355.42	-18.08
355.636	-25.45
355.852	-12.85
356.068	2.26
356.284	-22.93
356.5	56.51
356.716	50.7
356.932	1.68
357.148	40.82
357.364	13.69
357.58	52.25
357.796	42.56
358.012	61.35
358.228	26.87
358.444	-29.32
358.66	80.15
358.876	0.52
359.092	-1.61
359.308	6.91
359.524	19.12
359.74	-2.97
359.956	-16.53
360.172	10.4
360.388	37.52
360.604	-24.48
360.819	74.33
361.035	24.74
361.251	33.45
361.467	-8.01
361.683	50.7
361.898	25.51
362.114	48.37
362.33	4.97
362.546	43.33
362.762	-28.16
362.977	0.32
363.193	-4.71
363.409	46.43
363.624	-42.88
363.84	-16.73
364.056	-6.46
364.271	17.95
364.487	15.44
364.703	-11.3
364.918	-14.79
365.134	-7.43
365.35	0.71
365.565	105.92
365.781	14.85
365.996	-2.39
366.212	64.26
366.427	10.98
366.643	0.71
366.858	13.5
367.074	-19.63
367.289	47.02
367.505	77.82
367.72	-25.83
367.936	26.09
368.151	23.57
368.367	34.03
368.582	19.89
368.798	1.1
369.013	52.44
369.228	24.93
369.444	11.17
369.659	56.12
369.874	37.33
370.09	62.9
370.305	-23.7
370.52	-7.43
370.736	40.82
370.951	-19.83
371.166	31.52
371.381	56.32
371.597	33.07
371.812	-37.46
372.027	-20.6
372.242	19.12
372.458	98.55
372.673	-20.8
372.888	14.47
373.103	6.52
373.318	83.83
373.533	1.68
373.749	18.15
373.964	-18.47
374.179	52.05
374.394	15.82
374.609	36.94
374.824	-18.28
375.039	64.45
375.254	-22.93
375.469	60.97
375.684	41.2
375.899	55.35
376.114	21.05
376.329	35.58
376.544	28.03
376.759	47.21
376.974	-8.4
377.189	-11.88
377.404	-19.05
377.619	49.34
377.834	-47.34
378.049	-22.35
378.264	-14.98
378.478	36.94
378.693	-24.28
378.908	26.48
379.123	-9.95
379.338	58.64
379.553	11.17
379.767	13.89
379.982	26.67
380.197	39.07
380.412	-15.37
380.626	29.58
380.841	96.62
381.056	26.29
381.271	54.57
381.485	-2
381.7	-38.43
381.915	49.73
382.129	-14.6
382.344	17.95
382.559	9.24
382.773	53.8
382.988	-12.27
383.202	27.84
383.417	2.07
383.632	108.24
383.846	-18.08
384.061	15.24
384.275	19.31
384.49	29.77
384.704	43.72
384.919	36.94
385.133	-6.65
385.348	48.76
385.562	1.87
385.777	32.1
385.991	4.2
386.206	0.71
386.42	15.63
386.634	73.17
386.849	28.61
387.063	22.02
387.277	-12.46
387.492	17.76
387.706	-19.63
387.92	2.07
388.135	59.22
388.349	17.18
388.563	28.61
388.778	19.89
388.992	38.68
389.206	64.26
389.42	75.5
389.635	1.49
389.849	59.42
390.063	63.68
390.277	13.11
390.491	72.59
390.706	55.54
390.92	31.52
391.134	14.27
391.348	20.28
391.562	-26.22
391.776	24.35
391.99	-7.23
392.205	48.18
392.419	3.42
392.633	8.07
392.847	76.47
393.061	-18.86
393.275	97.2
393.489	36.36
393.703	31.32
393.917	41.2
394.131	14.66
394.345	41.59
394.559	73.56
394.773	39.07
394.986	7.88
395.2	24.54
395.414	61.35
395.628	2.26
395.842	47.21
396.056	2.07
396.27	-28.16
396.484	11.75
396.697	59.03
396.911	52.44
397.125	66.39
397.339	57.67
397.553	55.54
397.766	91
397.98	42.37
398.194	61.55
398.408	27.06
398.621	53.8
398.835	61.74
399.049	40.62
399.262	77.05
399.476	81.12
399.69	26.87
399.903	94.1
400.117	27.84
400.331	72.01
400.544	18.15
400.758	128
400.971	21.64
401.185	61.93
401.398	-1.42
401.612	83.83
401.826	46.24
402.039	85.18
402.253	22.22
402.466	59.61
402.68	42.95
402.893	67.36
403.106	47.02
403.32	35.97
403.533	68.13
403.747	68.33
403.96	52.44
404.174	78.79
404.387	20.47
404.6	55.93
404.814	46.82
405.027	32.1
405.24	43.14
405.454	28.61
405.667	65.23
405.88	-17.31
406.094	53.22
406.307	86.73
406.52	49.92
406.733	25.9
406.947	-10.33
407.16	89.06
407.373	63.68
407.586	29.77
407.799	29
408.012	83.44
408.226	56.7
408.439	59.03
408.652	9.62
408.865	71.23
409.078	87.9
409.291	58.25
409.504	8.07
409.717	62.13
409.93	29.58
410.143	49.73
410.357	-1.23
410.57	-14.21
410.783	40.23
410.996	71.23
411.209	48.37
411.421	79.37
411.634	34.42
411.847	13.3
412.06	39.85
412.273	43.33
412.486	65.62
412.699	129.16
412.912	37.52
413.125	67.36
413.338	35.97
413.55	71.62
413.763	55.35
413.976	56.9
414.189	31.9
414.402	38.68
414.615	89.64
414.827	22.02
415.04	78.21
415.253	84.6
415.466	92.55
415.678	115.99
415.891	39.85
416.104	65.62
416.316	49.73
416.529	44.11
416.742	72.2
416.954	75.3
417.167	44.69
417.38	40.62
417.592	94.29
417.805	30.55
418.017	15.05
418.23	93.52
418.442	41.2
418.655	50.89
418.868	67.36
419.08	69.1
419.293	101.46
419.505	74.33
419.718	66.39
419.93	59.03
420.142	46.63
420.355	102.62
420.567	118.12
420.78	49.53
420.992	57.48
421.205	109.4
421.417	16.79
421.629	25.32
421.842	10.01
422.054	17.37
422.266	91.97
422.479	95.65
422.691	27.64
422.903	83.44
423.115	48.37
423.328	83.25
423.54	70.07
423.752	26.87
423.964	32.1
424.177	77.24
424.389	30.74
424.601	176.25
424.813	46.05
425.025	92.16
425.238	101.07
425.45	51.47
425.662	40.23
425.874	325.82
426.086	60.77
426.298	103.59
426.51	58.45
426.722	57.28
426.934	50.5
427.146	95.45
427.358	39.85
427.57	106.3
427.782	69.1
427.994	80.92
428.206	49.53
428.418	15.05
428.63	83.44
428.842	92.93
429.054	77.63
429.266	107.47
429.478	53.8
429.69	72.01
429.902	29.19
430.114	94.68
430.325	98.94
430.537	52.44
430.749	70.65
430.961	35.97
431.173	71.43
431.384	88.09
431.596	9.43
431.808	48.37
432.02	57.09
432.231	99.33
432.443	112.89
432.655	91.97
432.867	42.17
433.078	57.67
433.29	156.1
433.502	113.67
433.713	89.45
433.925	71.04
434.136	96.62
434.348	36.75
434.56	26.87
434.771	165.4
434.983	54.57
435.194	29.97
435.406	52.44
435.617	115.8
435.829	135.36
436.04	97.78
436.252	81.31
436.463	129.75
436.675	96.62
436.886	90.42
437.098	87.9
437.309	112.89
437.521	82.47
437.732	110.37
437.943	83.63
438.155	90.22
438.366	33.07
438.578	147.18
438.789	76.85
439	110.18
439.211	88.09
439.423	104.95
439.634	119.86
439.845	106.69
440.057	84.41
440.268	112.5
440.479	67.55
440.69	109.79
440.902	72.59
441.113	100.3
441.324	57.09
441.535	115.02
441.746	141.18
441.957	57.48
442.168	64.65
442.38	113.67
442.591	155.32
442.802	63.29
443.013	72.01
443.224	104.75
443.435	87.12
443.646	89.64
443.857	94.87
444.068	94.48
444.279	94.29
444.49	156.29
444.701	85.77
444.912	190.78
445.123	128.78
445.334	129.75
445.545	131.49
445.756	106.5
445.967	58.25
446.178	114.25
446.388	158.03
446.599	147.38
446.81	146.21
447.021	123.74
447.232	152.61
447.443	172.76
447.653	85.57
447.864	118.51
448.075	111.53
448.286	118.9
448.496	123.93
448.707	130.33
448.918	97
449.129	201.05
449.339	92.16
449.55	116.76
449.761	98.17
449.971	163.07
450.182	109.79
450.393	127.03
450.603	120.83
450.814	125.1
451.024	125.29
451.235	144.66
451.446	184.38
451.656	159.97
451.867	101.07
452.077	130.91
452.288	173.92
452.498	180.7
452.709	139.24
452.919	153.19
453.13	78.79
453.34	156.1
453.55	99.91
453.761	152.41
453.971	171.6
454.182	172.95
454.392	160.36
454.602	212.86
454.813	125.68
455.023	181.67
455.233	110.95
455.444	133.23
455.654	68.91
455.864	128.58
456.075	121.41
456.285	114.25
456.495	128.2
456.705	152.8
456.916	185.74
457.126	198.33
457.336	133.62
457.546	90.22
457.756	93.52
457.967	202.6
458.177	131.68
458.387	157.06
458.597	126.06
458.807	144.47
459.017	121.61
459.227	123.16
459.437	134.59
459.647	177.21
459.857	160.16
460.068	131.3
460.278	178.38
460.488	167.33
460.698	219.64
460.908	133.43
461.117	97.39
461.327	86.15
461.537	128.58
461.747	141.18
461.957	160.75
462.167	243.28
462.377	159.97
462.587	160.55
462.797	215.58
463.007	111.34
463.216	172.76
463.426	185.35
463.636	190.58
463.846	121.22
464.056	159.97
464.265	194.46
464.475	130.91
464.685	139.82
464.895	179.15
465.104	161.13
465.314	203.56
465.524	139.24
465.733	115.8
465.943	210.73
466.153	211.89
466.362	197.75
466.572	159.97
466.782	157.84
466.991	145.63
467.201	218.87
467.41	131.68
467.62	170.82
467.829	159.58
468.039	180.7
468.249	178.57
468.458	155.9
468.668	182.06
468.877	165.59
469.086	207.44
469.296	190
469.505	138.66
469.715	239.99
469.924	190.58
470.134	200.08
470.343	204.73
470.552	184.38
470.762	177.41
470.971	143.7
471.18	190.78
471.39	171.6
471.599	144.86
471.808	190.78
472.018	152.22
472.227	226.81
472.436	234.18
472.645	201.05
472.855	157.45
473.064	218.87
473.273	176.63
473.482	201.05
473.691	219.45
473.901	226.62
474.11	180.12
474.319	277.58
474.528	196.4
474.737	224.29
474.946	193.49
475.155	185.74
475.364	230.88
475.573	205.31
475.783	214.99
475.992	226.81
476.201	241.54
476.41	184.58
476.619	169.46
476.828	195.23
477.037	171.79
477.245	195.43
477.454	250.45
477.663	194.85
477.872	167.14
478.081	278.93
478.29	168.88
478.499	264.4
478.708	207.83
478.917	278.35
479.125	223.71
479.334	227.59
479.543	211.31
479.752	231.27
479.961	245.8
480.169	239.79
480.378	186.71
480.587	322.33
480.796	246.77
481.004	217.71
481.213	263.63
481.422	232.43
481.63	231.85
481.839	257.04
482.048	273.12
482.256	241.73
482.465	247.74
482.674	244.83
482.882	252
483.091	322.14
483.299	270.79
483.508	279.32
483.716	248.9
483.925	286.1
484.134	238.05
484.342	237.47
484.551	291.14
484.759	279.71
484.967	273.7
485.176	263.43
485.384	267.89
485.593	318.26
485.801	282.03
486.01	264.01
486.218	247.93
486.426	241.54
486.635	259.75
486.843	256.46
487.051	268.28
487.26	255.88
487.468	283.97
487.676	284.55
487.885	238.44
488.093	258.78
488.301	268.28
488.509	270.41
488.717	283.19
488.926	286.68
489.134	274.48
489.342	263.04
489.55	244.44
489.758	264.98
489.967	267.69
490.175	364.76
490.383	268.28
490.591	304.31
490.799	280.48
491.007	341.71
491.215	308.57
491.423	309.74
491.631	277.96
491.839	317.49
492.047	320.59
492.255	268.28
492.463	241.93
492.671	266.73
492.879	320.59
493.087	322.72
493.295	325.62
493.503	308.38
493.711	333.96
493.919	365.92
494.127	345.77
494.334	333.96
494.542	279.51
494.75	302.96
494.958	312.26
495.166	371.16
495.374	310.32
495.581	318.84
495.789	305.09
495.997	357.98
496.205	331.24
496.412	319.81
496.62	333.76
496.828	343.84
497.035	318.65
497.243	361.27
497.451	347.71
497.658	351.39
497.866	318.65
498.074	361.47
498.281	316.32
498.489	394.99
498.696	342.48
498.904	313.22
499.112	345.39
499.319	382.78
499.527	330.66
499.734	371.16
499.942	304.7
500.149	326.79
500.357	335.51
500.564	337.64
500.771	360.89
500.979	305.09
501.186	319.62
501.394	358.76
501.601	360.89
501.808	354.69
502.016	354.3
502.223	341.71
502.43	343.06
502.638	366.51
502.845	308.77
503.052	424.82
503.26	330.66
503.467	414.75
503.674	345.39
503.881	369.02
504.089	445.36
504.296	396.73
504.503	327.76
504.71	377.94
504.917	308.57
505.125	363.99
505.332	354.69
505.539	366.89
505.746	407.97
505.953	370.38
506.16	373.67
506.367	423.08
506.574	413
506.781	421.92
506.988	357.79
507.195	389.75
507.402	400.8
507.609	424.05
507.816	350.23
508.023	396.34
508.23	387.24
508.437	362.44
508.644	415.91
508.851	441.29
509.058	418.82
509.265	401.19
509.472	426.18
509.679	484.69
509.885	397.7
510.092	407.97
510.299	410.29
510.506	432.38
510.713	403.7
510.92	446.14
511.126	424.44
511.333	456.02
511.54	452.14
511.746	505.81
511.953	462.22
512.16	475.2
512.367	436.84
512.573	413
512.78	456.6
512.987	437.03
513.193	440.52
513.4	368.83
513.606	435.48
513.813	446.52
514.02	471.32
514.226	498.06
514.433	470.16
514.639	392.66
514.846	461.25
515.052	434.7
515.259	441.49
515.465	475.78
515.672	460.67
515.878	521.7
516.085	443.23
516.291	489.15
516.497	460.09
516.704	475.39
516.91	427.15
517.117	402.74
517.323	405.06
517.529	440.52
517.736	436.45
517.942	452.14
518.148	458.15
518.354	429.67
518.561	454.08
518.767	455.63
518.973	484.88
519.179	498.45
519.386	474.42
519.592	448.65
519.798	463.96
520.004	498.64
520.21	497.28
520.417	512.4
520.623	516.66
520.829	547.08
521.035	548.43
521.241	546.11
521.447	550.76
521.653	625.16
521.859	537.78
522.065	566.84
522.271	616.25
522.477	577.69
522.683	610.63
522.889	581.56
523.095	569.36
523.301	560.25
523.507	524.99
523.713	583.5
523.919	546.3
524.125	615.66
524.331	563.93
524.537	624.58
524.742	644.73
524.948	605.01
525.154	615.28
525.36	679.21
525.566	639.5
525.772	684.06
525.977	573.43
526.183	660.03
526.389	647.83
526.595	619.93
526.8	625.55
527.006	579.05
527.212	574.4
527.417	569.55
527.623	562.96
527.829	640.27
528.034	642.98
528.24	644.34
528.446	584.86
528.651	672.82
528.857	655.19
529.062	716.22
529.268	663.52
529.473	674.37
529.679	628.26
529.884	710.79
530.09	677.86
530.295	712.93
530.501	711.57
530.706	690.64
530.912	671.08
531.117	721.64
531.323	695.68
531.528	734.62
531.733	723.39
531.939	691.23
532.144	712.93
532.35	725.91
532.555	752.45
532.76	735.59
532.966	749.93
533.171	756.91
533.376	691.81
533.581	703.43
533.787	708.86
533.992	733.07
534.197	768.14
534.402	705.76
534.607	707.31
534.813	841.19
535.018	715.83
535.223	713.51
535.428	731.33
535.633	793.72
535.838	809.22
536.043	759.62
536.249	821.04
536.454	749.35
536.659	765.04
536.864	737.34
537.069	762.72
537.274	773.76
537.479	771.63
537.684	777.64
537.889	747.61
538.094	841.38
538.299	781.71
538.504	807.47
538.708	804.96
538.913	787.13
539.118	763.69
539.323	787.71
539.528	779.77
539.733	787.13
539.938	787.71
540.142	806.89
540.347	792.17
540.552	765.43
540.757	808.64
540.962	781.12
541.166	733.27
541.371	726.68
541.576	793.91
541.781	693.16
541.985	793.91
542.19	778.41
542.395	822.59
542.599	856.1
542.804	848.55
543.008	865.6
543.213	803.79
543.418	782.48
543.622	805.34
543.827	788.1
544.031	858.04
544.236	851.26
544.44	816.58
544.645	903.38
544.849	801.47
545.054	836.92
545.258	903.96
545.463	915.58
545.667	810.38
545.872	852.04
546.076	833.63
546.281	845.84
546.485	825.69
546.689	833.24
546.894	886.33
547.098	818.71
547.302	818.13
547.507	818.52
547.711	864.24
547.915	904.35
548.119	813.29
548.324	808.64
548.528	907.25
548.732	852.42
548.936	910.93
549.141	882.84
549.345	852.81
549.549	835.76
549.753	857.07
549.957	935.73
550.161	900.09
550.366	861.14
550.57	829.17
550.774	854.75
550.978	851.84
551.182	897.18
551.386	829.56
551.59	843.32
551.794	847.58
551.998	885.17
552.202	852.42
552.406	828.01
552.61	851.26
552.814	872.19
553.018	916.36
553.222	893.69
553.426	860.75
553.63	928.95
553.833	870.05
554.037	849.9
554.241	896.21
554.445	890.59
554.649	846.8
554.853	823.36
555.056	906.48
555.26	877.8
555.464	867.34
555.668	863.66
555.871	884.78
556.075	942.52
556.279	845.25
556.483	853.59
556.686	829.17
556.89	856.69
557.094	884.2
557.297	813.48
557.501	909.19
557.704	810.19
557.908	893.11
558.112	830.34
558.315	893.69
558.519	837.12
558.722	818.32
558.926	824.72
559.129	788.29
559.333	784.81
559.536	809.22
559.74	792.56
559.943	806.7
560.147	809.41
560.35	799.14
560.553	781.71
560.757	747.02
560.96	851.26
561.164	797.01
561.367	859.79
561.57	777.44
561.774	808.25
561.977	791.59
562.18	778.99
562.384	876.45
562.587	819.1
562.79	776.47
562.993	819.1
563.197	847.58
563.4	861.53
563.603	834.4
563.806	896.99
564.009	769.69
564.212	819.68
564.416	728.81
564.619	801.66
564.822	751.48
565.025	854.75
565.228	795.27
565.431	781.9
565.634	713.7
565.837	766.98
566.04	738.89
566.243	780.93
566.446	685.99
566.649	778.22
566.852	710.79
567.055	726.68
567.258	759.04
567.461	812.32
567.664	812.51
567.867	700.53
568.07	781.51
568.273	754
568.475	770.47
568.678	739.08
568.881	742.96
569.084	725.33
569.287	661.19
569.489	677.86
569.692	754.77
569.895	754.77
570.098	691.42
570.3	676.69
570.503	624.77
570.706	654.8
570.909	646.47
571.111	636.2
571.314	640.66
571.516	666.62
571.719	694.71
571.922	620.9
572.124	629.23
572.327	671.27
572.529	628.45
572.732	600.75
572.935	670.69
573.137	685.8
573.34	625.74
573.542	679.21
573.745	660.42
573.947	639.11
574.15	632.13
574.352	627.68
574.554	677.08
574.757	625.35
574.959	615.66
575.162	582.73
575.364	594.16
575.566	690.06
575.769	570.71
575.971	623.61
576.173	557.73
576.376	619.73
576.578	626.51
576.78	659.06
576.982	540.49
577.185	590.86
577.387	575.75
577.589	592.61
577.791	619.93
577.993	622.45
578.196	566.06
578.398	618.38
578.6	632.71
578.802	560.64
579.004	565.1
579.206	563.35
579.408	581.76
579.61	572.26
579.812	617.21
580.014	572.85
580.216	576.33
580.418	563.93
580.62	574.98
580.822	545.92
581.024	590.86
581.226	610.63
581.428	574.59
581.63	652.67
581.832	557.35
582.034	612.95
582.236	596.1
582.438	606.36
582.64	625.74
582.841	617.8
583.043	672.63
583.245	604.23
583.447	608.3
583.649	562.77
583.85	585.44
584.052	664.1
584.254	563.93
584.456	625.55
584.657	549.02
584.859	583.11
585.061	580.01
585.262	562.96
585.464	518.02
585.666	590.67
585.867	542.62
586.069	636.2
586.27	585.05
586.472	565.1
586.674	571.3
586.875	555.99
587.077	559.28
587.278	596.1
587.48	578.27
587.681	641.63
587.883	573.43
588.084	483.53
588.285	555.21
588.487	547.66
588.688	561.61
588.89	500.19
589.091	500.38
589.292	502.52
589.494	514.53
589.695	494.57
589.896	474.42
590.098	454.47
590.299	525.38
590.5	463.96
590.702	475.39
590.903	518.6
591.104	556.38
591.305	511.23
591.507	573.62
591.708	529.83
591.909	519.57
592.11	572.26
592.311	545.92
592.512	516.08
592.714	477.52
592.915	475
593.116	480.43
593.317	488.76
593.518	500.77
593.719	495.93
593.92	525.57
594.121	569.75
594.322	530.8
594.523	496.51
594.724	507.94
594.925	498.45
595.126	503.87
595.327	512.59
595.528	502.13
595.729	531.58
595.929	496.51
596.13	530.42
596.331	492.05
596.532	514.92
596.733	566.06
596.934	523.63
597.135	568.78
597.335	518.98
597.536	487.6
597.737	532.55
597.938	469.19
598.138	525.57
598.339	494.57
598.54	529.06
598.74	519.37
598.941	501.93
599.142	556.76
599.342	504.07
599.543	463.57
599.744	508.13
599.944	524.6
600.145	506.78
600.345	520.34
600.546	573.23
600.746	558.51
600.947	568.78
601.147	512.4
601.348	561.8
601.548	475.97
601.749	507.94
601.949	463.57
602.15	465.7
602.35	510.65
602.551	557.35
602.751	498.83
602.951	479.27
603.152	423.66
603.352	544.56
603.552	476.94
603.753	545.92
603.953	512.78
604.153	512.2
604.354	489.15
604.554	503.29
604.754	507.94
604.954	462.99
605.155	531.97
605.355	475.2
605.555	529.06
605.755	520.73
605.955	512.2
606.155	523.44
606.356	493.99
606.556	522.67
606.756	500.77
606.956	447.69
607.156	518.4
607.356	470.55
607.556	503.1
607.756	532.55
607.956	530.22
608.156	499.42
608.356	489.53
608.556	510.85
608.756	530.8
608.956	459.89
609.156	518.6
609.356	461.05
609.556	459.31
609.755	483.92
609.955	443.62
610.155	468.61
610.355	472.68
610.555	461.83
610.755	479.07
610.954	398.86
611.154	498.25
611.354	533.9
611.554	455.44
611.753	448.85
611.953	429.47
612.153	512.59
612.352	468.22
612.552	435.87
612.752	389.95
612.951	455.82
613.151	466.67
613.351	446.33
613.55	453.11
613.75	488.37
613.949	457.95
614.149	483.92
614.348	452.34
614.548	422.5
614.747	406.22
614.947	461.64
615.146	387.62
615.346	467.64
615.545	434.9
615.745	438.58
615.944	484.5
616.144	437.42
616.343	496.7
616.542	445.17
616.742	410.87
616.941	417.27
617.14	381.23
617.34	439.55
617.539	437.8
617.738	402.93
617.938	451.56
618.137	454.27
618.336	398.86
618.535	443.62
618.734	432.57
618.934	417.65
619.133	438.19
619.332	418.62
619.531	398.09
619.73	425.4
619.929	478.3
620.128	457.18
620.328	477.72
620.527	415.33
620.726	417.46
620.925	449.43
621.124	381.62
621.323	433.74
621.522	367.47
621.721	391.11
621.92	380.26
622.119	444.2
622.318	375.22
622.517	405.64
622.715	380.45
622.914	379.29
623.113	373.29
623.312	362.24
623.511	428.31
623.71	392.27
623.909	381.23
624.107	468.61
624.306	359.72
624.505	392.08
624.704	372.12
624.902	370.77
625.101	433.54
625.3	395.37
625.499	395.37
625.697	401.57
625.896	371.16
626.095	380.45
626.293	357.79
626.492	386.07
626.69	397.7
626.889	334.73
627.088	423.08
627.286	364.18
627.485	348.68
627.683	338.02
627.882	395.95
628.08	327.95
628.279	357.79
628.477	447.69
628.676	336.09
628.874	370.57
629.073	376.39
629.271	322.72
629.469	385.69
629.668	339.96
629.866	363.79
630.065	333.57
630.263	368.06
630.461	378.52
630.66	361.66
630.858	394.02
631.056	405.25
631.254	411.84
631.453	356.82
631.651	416.1
631.849	385.69
632.047	388.98
632.245	351.59
632.444	381.23
632.642	367.86
632.84	392.08
633.038	364.37
633.236	320.97
633.434	348.87
633.632	337.06
633.83	344.22
634.028	385.69
634.227	350.04
634.425	420.37
634.623	355.66
634.821	377.55
635.019	388.98
635.216	338.41
635.414	357.01
635.612	376.97
635.81	369.02
636.008	412.42
636.206	350.23
636.404	370.96
636.602	334.73
636.8	350.62
636.997	393.24
637.195	417.27
637.393	373.87
637.591	398.09
637.789	376.97
637.986	319.62
638.184	357.79
638.382	379.1
638.58	394.79
638.777	412.62
638.975	374.26
639.173	369.41
639.37	358.95
639.568	345.58
639.765	376.39
639.963	361.27
640.161	413.97
640.358	402.35
640.556	343.06
640.753	326.01
640.951	326.59
641.148	381.42
641.346	341.71
641.543	336.86
641.741	370.96
641.938	332.02
642.136	357.79
642.333	340.35
642.531	396.54
642.728	383.55
642.925	349.26
643.123	352.94
643.32	348.68
643.517	344.42
643.715	351.78
643.912	336.09
644.109	336.86
644.306	365.15
644.504	302.57
644.701	362.44
644.898	376
645.095	330.66
645.293	348.68
645.49	344.22
645.687	347.13
645.884	363.02
646.081	304.31
646.278	337.64
646.475	326.4
646.672	326.01
646.87	357.59
647.067	347.91
647.264	354.3
647.461	320.39
647.658	297.34
647.855	344.81
648.052	312.45
648.249	245.99
648.446	290.94
648.642	278.16
648.839	309.93
649.036	286.88
649.233	257.81
649.43	231.27
649.627	254.52
649.824	298.11
650.021	274.28
650.217	251.23
650.414	268.66
650.611	326.98
650.808	323.88
651.004	315.16
651.201	311.48
651.398	368.83
651.595	302.76
651.791	293.07
651.988	338.99
652.185	268.08
652.381	311.48
652.578	250.64
652.775	287.26
652.971	296.37
653.168	296.95
653.364	322.33
653.561	249.09
653.757	266.73
653.954	290.94
654.15	286.49
654.347	353.52
654.543	260.72
654.74	241.93
654.936	255.88
655.133	274.28
655.329	284.16
655.525	252
655.722	301.99
655.918	301.6
656.115	304.51
656.311	252
656.507	262.27
656.704	207.24
656.9	252.39
657.096	232.43
657.292	219.06
657.489	301.41
657.685	254.91
657.881	261.3
658.077	255.49
658.273	247.35
658.47	323.11
658.666	248.13
658.862	277.96
659.058	239.21
659.254	290.36
659.45	233.4
659.646	258.98
659.842	259.75
660.038	323.88
660.234	256.26
660.43	256.07
660.626	323.69
660.822	284.74
661.018	298.5
661.214	288.43
661.41	227.98
661.606	256.07
661.802	317.68
661.998	271.76
662.194	240.38
662.39	282.03
662.586	283.58
662.781	280.48
662.977	275.64
663.173	306.64
663.369	268.86
663.564	283.78
663.76	322.52
663.956	276.03
664.152	319.04
664.347	207.63
664.543	257.43
664.739	232.82
664.934	226.62
665.13	245.61
665.326	307.22
665.521	269.44
665.717	247.16
665.912	255.29
666.108	196.4
666.304	241.15
666.499	232.04
666.695	214.03
666.89	232.04
667.086	282.81
667.281	273.89
667.477	296.76
667.672	265.95
667.867	269.83
668.063	265.95
668.258	233.98
668.454	261.69
668.649	299.47
668.844	248.51
669.04	284.74
669.235	249.68
669.43	218.87
669.626	218.29
669.821	223.52
670.016	223.71
670.211	250.84
670.407	208.79
670.602	242.51
670.797	248.13
670.992	270.79
671.187	230.49
671.382	280.68
671.578	208.02
671.773	273.31
671.968	200.27
672.163	224.68
672.358	282.03
672.553	235.92
672.748	238.83
672.943	268.86
673.138	233.21
673.333	264.59
673.528	228.56
673.723	249.09
673.918	223.91
674.113	182.06
674.308	293.27
674.503	257.43
674.698	264.4
674.892	261.88
675.087	272.15
675.282	260.91
675.477	237.66
675.672	266.34
675.867	228.36
676.061	204.53
676.256	160.36
676.451	213.64
676.646	241.73
676.84	193.88
677.035	171.98
677.23	181.48
677.424	236.89
677.619	255.68
677.814	258.2
678.008	267.5
678.203	193.88
678.397	211.31
678.592	216.35
678.787	278.54
678.981	191.75
679.176	231.85
679.37	207.83
679.565	181.09
679.759	212.67
679.954	242.7
680.148	258.2
680.342	276.99
680.537	261.11
680.731	213.64
680.926	238.05
681.12	240.18
681.314	227.78
681.509	223.91
681.703	207.83
681.897	272.54
682.092	231.85
682.286	209.76
682.48	306.06
682.674	285.71
682.869	210.15
683.063	222.36
683.257	294.82
683.451	231.08
683.645	237.47
683.839	229.72
684.034	203.37
684.228	269.83
684.422	218.29
684.616	227.2
684.81	281.26
685.004	217.13
685.198	215.38
685.392	271.76
685.586	199.11
685.78	256.84
685.974	272.34
686.168	258.01
686.362	306.06
686.556	208.21
686.75	216.54
686.944	230.69
687.138	247.35
687.331	155.9
687.525	214.61
687.719	170.24
687.913	215.58
688.107	210.54
688.301	202.21
688.494	243.67
688.688	185.16
688.882	180.12
689.076	151.45
689.269	204.73
689.463	265.76
689.657	227.78
689.85	206.47
690.044	214.03
690.238	206.47
690.431	219.45
690.625	214.8
690.818	215.77
691.012	230.3
691.205	251.81
691.399	195.43
691.593	237.86
691.786	239.41
691.98	277.96
692.173	314.39
692.366	271.18
692.56	275.44
692.753	302.18
692.947	242.51
693.14	303.92
693.333	289.59
693.527	239.79
693.72	296.95
693.914	262.85
694.107	279.32
694.3	294.04
694.493	271.38
694.687	330.47
694.88	232.24
695.073	313.22
695.266	314.77
695.46	308.38
695.653	342.09
695.846	337.06
696.039	273.7
696.232	296.95
696.425	335.12
696.618	323.69
696.812	306.06
697.005	394.79
697.198	414.36
697.391	374.26
697.584	376.97
697.777	446.91
697.97	413.59
698.163	415.91
698.356	404.67
698.549	478.88
698.742	422.89
698.935	388.01
699.127	437.42
699.32	389.17
699.513	409.13
699.706	437.03
699.899	470.35
700.092	439.35
700.285	473.45
700.477	404.87
700.67	465.12
700.863	479.85
701.056	514.14
701.248	515.5
701.441	491.08
701.634	487.98
701.826	574.4
702.019	485.66
702.212	542.04
702.404	508.33
702.597	485.27
702.79	495.93
702.982	548.82
703.175	558.12
703.367	594.16
703.56	596.87
703.752	650.93
703.945	611.98
704.137	609.85
704.33	627.1
704.522	635.62
704.715	648.79
704.907	648.6
705.1	670.69
705.292	704.98
705.484	677.47
705.677	739.08
705.869	713.7
706.061	727.07
706.254	730.56
706.446	748.19
706.638	707.5
706.831	813.87
707.023	748.38
707.215	818.32
707.407	794.88
707.599	790.42
707.792	832.47
707.984	810.19
708.176	849.52
708.368	812.51
708.56	858.62
708.752	820.07
708.944	821.42
709.136	879.16
709.329	861.34
709.521	973.52
709.713	909
709.905	888.07
710.097	952.78
710.289	905.7
710.481	935.93
710.672	952.2
710.864	925.66
711.056	1020.4
711.248	995.02
711.44	986.3
711.632	981.65
711.824	1012.07
712.016	1092.67
712.207	1050.82
712.399	1033.77
712.591	1093.44
712.783	1082.79
712.975	1101
713.166	1057.99
713.358	1085.89
713.55	1170.17
713.741	1166.68
713.933	1150.21
714.125	1129.68
714.316	1120.96
714.508	1197.29
714.7	1201.56
714.891	1156.99
715.083	1239.92
715.274	1203.69
715.466	1207.37
715.657	1206.59
715.849	1145.18
716.04	1192.84
716.232	1159.71
716.423	1243.79
716.615	1173.07
716.806	1150.21
716.998	1120.96
717.189	1094.61
717.381	1045.4
717.572	1049.46
717.763	1070.58
717.955	1082.59
718.146	1025.05
718.337	1003.55
718.528	997.54
718.72	927.6
718.911	1022.15
719.102	1013.04
719.293	1029.31
719.485	1020.6
719.676	1008.39
719.867	983.2
720.058	974.68
720.249	993.47
720.44	1022.34
720.632	1049.66
720.823	1079.69
721.014	1184.51
721.205	1183.15
721.396	1238.76
721.587	1311.99
721.778	1306.95
721.969	1342.02
722.16	1382.71
722.351	1366.05
722.542	1471.45
722.733	1446.84
722.924	1379.03
723.115	1471.83
723.305	1494.31
723.496	1473.19
723.687	1399.76
723.878	1376.12
724.069	1461.37
724.26	1427.46
724.45	1365.85
724.641	1349
724.832	1415.07
725.023	1421.27
725.213	1384.45
725.404	1385.23
725.595	1402.67
725.785	1353.65
725.976	1417
726.167	1446.06
726.357	1462.73
726.548	1516.98
726.739	1473
726.929	1538.68
727.12	1569.68
727.31	1525.31
727.501	1527.44
727.691	1529.57
727.882	1576.07
728.072	1590.02
728.263	1575.49
728.453	1605.71
728.644	1640.59
728.834	1629.54
729.024	1579.17
729.215	1598.93
729.405	1619.66
729.596	1691.93
729.786	1734.17
729.976	1733.97
730.167	1708.59
730.357	1686.12
730.547	1703.75
730.737	1726.8
730.928	1775.44
731.118	1834.92
731.308	1760.13
731.498	1779.5
731.688	1831.82
731.879	1859.91
732.069	1920.55
732.259	1930.05
732.449	1966.47
732.639	2022.27
732.829	2009.48
733.019	2047.84
733.209	2117.98
733.399	2103.64
733.589	2187.73
733.779	2196.06
733.969	2205.75
734.159	2228.22
734.349	2282.86
734.539	2313.86
734.729	2275.88
734.919	2347.96
735.109	2396.98
735.299	2323.35
735.488	2368.5
735.678	2374.89
735.868	2362.68
736.058	2360.94
736.248	2350.28
736.437	2331.1
736.627	2329.75
736.817	2456.26
737.007	2442.89
737.196	2465.76
737.386	2425.84
737.576	2448.32
737.765	2485.13
737.955	2498.89
738.144	2541.12
738.334	2518.26
738.524	2497.14
738.713	2552.17
738.903	2510.71
739.092	2565.34
739.282	2555.46
739.471	2621.72
739.661	2581.23
739.85	2602.54
740.04	2607.77
740.229	2637.61
740.419	2698.83
740.608	2683.33
740.797	2673.65
740.987	2760.83
741.176	2722.86
741.365	2700.58
741.555	2656.98
741.744	2746.69
741.933	2707.55
742.123	2769.36
742.312	2753.08
742.501	2796.48
742.69	2808.11
742.88	2721.31
743.069	2820.51
743.258	2799.78
743.447	2875.53
743.636	2851.51
743.825	2813.34
744.014	2864.68
744.204	2882.31
744.393	2845.31
744.582	2909.24
744.771	2917.57
744.96	2881.54
745.149	2881.93
745.338	2836.59
745.527	2939.08
745.716	2871.46
745.905	2876.31
746.094	2916.41
746.283	2912.54
746.471	2935.59
746.66	2989.84
746.849	2933.46
747.038	2979.96
747.227	2951.29
747.416	2996.43
747.604	2934.62
747.793	2950.12
747.982	2973.76
748.171	2960.97
748.359	3023.94
748.548	2926.68
748.737	2963.69
748.926	2948.57
749.114	2876.31
749.303	2998.76
749.491	2959.42
749.68	2849.18
749.869	2964.85
750.057	2954.19
750.246	2932.11
750.434	2943.92
750.623	2925.32
750.811	2938.69
751	2954.77
751.188	2937.53
751.377	2946.06
751.565	2906.53
751.754	2941.6
751.942	2890.45
752.131	2993.72
752.319	2909.83
752.507	2924.36
752.696	2973.57
752.884	3003.6
753.072	2905.76
753.261	2960.97
753.449	2973.18
753.637	2917.96
753.825	3004.37
754.014	2955.36
754.202	2932.49
754.39	3011.74
754.578	2938.89
754.766	2906.92
754.955	2923.77
755.143	3009.02
755.331	2902.66
755.519	2921.06
755.707	2958.46
755.895	2924.36
756.083	2944.12
756.271	2900.14
756.459	2922.61
756.647	2961.56
756.835	2867.59
757.023	2900.53
757.211	2899.75
757.399	2861.97
757.587	2881.73
757.775	2834.46
757.963	2857.51
758.151	2871.85
758.339	2818.18
758.526	2821.09
758.714	2829.81
758.902	2728.48
759.09	2700.97
759.278	2515.36
759.465	2254.96
759.653	1965.5
759.841	1809.15
760.028	1524.92
760.216	1334.08
760.404	1258.52
760.591	1039.97
760.779	873.54
760.967	771.24
761.154	638.33
761.342	684.64
761.529	665.26
761.717	693.55
761.905	700.53
762.092	766.01
762.28	690.45
762.467	651.12
762.655	625.55
762.842	650.15
763.029	675.73
763.217	634.85
763.404	690.84
763.592	705.37
763.779	656.93
763.966	736.17
764.154	720.09
764.341	795.07
764.528	822.78
764.716	853.2
764.903	919.07
765.09	952.01
765.277	989.21
765.465	1151.57
765.652	1193.03
765.839	1239.14
766.026	1374.18
766.213	1354.03
766.4	1476.1
766.588	1650.66
766.775	1659.19
766.962	1764
767.149	1801.01
767.336	1969.76
767.523	1935.66
767.71	2033.51
767.897	2130.57
768.084	2195.29
768.271	2236.36
768.458	2262.9
768.645	2310.18
768.832	2302.43
769.019	2338.66
769.206	2404.34
769.392	2426.23
769.579	2513.42
769.766	2469.24
769.953	2501.41
770.14	2549.26
770.327	2539.19
770.513	2610.49
770.7	2636.84
770.887	2536.86
771.073	2606.8
771.26	2600.6
771.447	2528.34
771.634	2565.34
771.82	2644.39
772.007	2526.98
772.193	2589.75
772.38	2611.26
772.567	2608.94
772.753	2594.99
772.94	2615.91
773.126	2629.47
773.313	2616.1
773.499	2624.82
773.686	2600.99
773.872	2598.47
774.059	2609.13
774.245	2578.71
774.432	2571.74
774.618	2527.56
774.804	2568.83
774.991	2511.87
775.177	2553.52
775.363	2561.66
775.55	2551.39
775.736	2523.49
775.922	2529.69
776.109	2538.41
776.295	2529.69
776.481	2584.14
776.667	2550.04
776.853	2525.24
777.04	2503.73
777.226	2550.62
777.412	2605.06
777.598	2514.19
777.784	2548.49
777.97	2495.4
778.156	2528.34
778.342	2521.36
778.528	2511.48
778.715	2457.81
778.901	2488.42
779.087	2501.6
779.272	2427.39
779.458	2426.81
779.644	2483.97
779.83	2435.73
780.016	2494.24
780.202	2473.31
780.388	2434.76
780.574	2381.48
780.76	2438.63
780.946	2468.66
781.131	2417.13
781.317	2390
781.503	2377.41
781.689	2397.56
781.874	2554.69
782.06	2379.73
782.246	2376.44
782.432	2416.93
782.617	2374.89
782.803	2428.17
782.989	2318.12
783.174	2339.63
783.36	2342.73
783.545	2356.1
783.731	2366.75
783.916	2270.65
784.102	2343.7
784.288	2350.48
784.473	2305.14
784.659	2324.32
784.844	2355.9
785.029	2295.84
785.215	2291
785.4	2248.57
785.586	2330.71
785.771	2247.79
785.956	2320.06
786.142	2285.96
786.327	2245.08
786.512	2230.74
786.698	2283.05
786.883	2218.73
787.068	2224.73
787.254	2263.1
787.439	2251.28
787.624	2235.97
787.809	2206.14
787.994	2176.69
788.18	2286.73
788.365	2141.81
788.55	2189.09
788.735	2194.12
788.92	2150.72
789.105	2151.11
789.29	2143.75
789.475	2107.32
789.66	2143.36
789.845	2126.5
790.03	2074.58
790.215	2173.78
790.4	2146.85
790.585	2180.75
790.77	2123.41
790.955	2045.32
791.14	2112.94
791.325	2167.58
791.51	2011.61
791.695	2075.94
791.879	2083.69
792.064	2065.67
792.249	2146.07
792.434	2084.07
792.618	2107.32
792.803	2108.1
792.988	2079.81
793.173	2110.04
793.357	2156.92
793.542	2058.89
793.727	2056.56
793.911	2141.23
794.096	2105.58
794.281	2128.83
794.465	2166.8
794.65	2123.6
794.834	2119.34
795.019	2170.87
795.203	2180.95
795.388	2140.26
795.572	2158.47
795.757	2115.66
795.941	2133.87
796.126	2134.64
796.31	2075.16
796.494	2127.09
796.679	2085.82
796.863	2071.29
797.048	2167
797.232	2130.57
797.416	2141.42
797.601	2114.69
797.785	2232.1
797.969	2156.73
798.153	2120.31
798.338	2146.65
798.522	2207.69
798.706	2202.45
798.89	2182.69
799.074	2273.75
799.258	2177.07
799.443	2150.34
799.627	2161.96
799.811	2202.45
799.995	2142.39
800.179	2126.12
800.363	2139.29
800.547	2147.82
800.731	2191.8
800.915	2121.27
801.099	2102.67
801.283	2143.17
801.467	2132.51
801.651	2118.56
801.835	2176.3
802.019	2123.79
802.202	2130.77
802.386	2091.24
802.57	2082.33
802.754	2094.92
802.938	2089.11
803.121	2099.77
803.305	2159.44
803.489	2135.8
803.673	2139.68
803.856	2147.82
804.04	2121.47
804.224	2126.12
804.407	2115.07
804.591	2151.89
804.775	2133.87
804.958	2153.24
805.142	2236.55
805.326	2188.12
805.509	2140.65
805.693	2148.79
805.876	2198.58
806.06	2160.22
806.243	2157.89
806.427	2195.87
806.61	2194.12
806.794	2141.23
806.977	2190.05
807.16	2163.9
807.344	2143.94
807.527	2133.87
807.71	2158.09
807.894	2164.67
808.077	2187.54
808.26	2121.66
808.444	2086.21
808.627	2139.68
808.81	2099.19
808.993	2048.23
809.177	2070.71
809.36	2075.16
809.543	2150.92
809.726	2007.54
809.909	2012.39
810.092	1978.87
810.276	2028.47
810.459	2015.88
810.642	2001.34
810.825	1959.3
811.008	1984.88
811.191	1905.83
811.374	1950.39
811.557	1960.85
811.74	1930.63
811.923	1867.27
812.106	1887.42
812.289	1847.32
812.472	1832.01
812.654	1824.65
812.837	1815.15
813.02	1814.38
813.203	1777.18
813.386	1681.47
813.569	1663.64
813.751	1626.44
813.934	1656.67
814.117	1626.06
814.3	1583.82
814.482	1559.79
814.665	1526.47
814.848	1501.48
815.03	1460.98
815.213	1420.49
815.396	1408.28
815.578	1449.75
815.761	1397.43
815.943	1445.68
816.126	1362.75
816.309	1326.91
816.491	1304.05
816.674	1252.9
816.856	1278.86
817.039	1288.74
817.221	1379.42
817.403	1299.79
817.586	1309.09
817.768	1319.94
817.951	1244.76
818.133	1238.17
818.315	1295.91
818.498	1312.19
818.68	1348.61
818.862	1311.6
819.045	1353.65
819.227	1367.4
819.409	1291.07
819.591	1353.26
819.774	1337.18
819.956	1314.32
820.138	1409.25
820.32	1346.28
820.502	1432.89
820.684	1473.19
820.866	1461.37
821.048	1511.55
821.231	1537.9
821.413	1520.66
821.595	1484.81
821.777	1519.3
821.959	1510.58
822.141	1560.18
822.323	1463.31
822.505	1392.01
822.686	1323.81
822.868	1292.23
823.05	1163.78
823.232	1169.01
823.414	1121.93
823.596	1184.31
823.778	1144.79
823.96	1204.46
824.141	1207.37
824.323	1247.28
824.505	1271.11
824.687	1349.77
824.868	1418.36
825.05	1447.81
825.232	1473.38
825.413	1525.31
825.595	1476.1
825.777	1435.41
825.958	1454.01
826.14	1485.59
826.321	1501.09
826.503	1471.83
826.685	1465.25
826.866	1482.88
827.048	1476.48
827.229	1427.46
827.411	1402.67
827.592	1372.25
827.773	1389.1
827.955	1324.59
828.136	1342.22
828.318	1273.24
828.499	1345.51
828.68	1282.54
828.862	1355
829.043	1355.97
829.224	1309.09
829.406	1300.95
829.587	1316.06
829.768	1299.01
829.949	1325.36
830.131	1339.5
830.312	1383.68
830.493	1357.52
830.674	1350.74
830.855	1327.3
831.036	1317.61
831.218	1405.77
831.399	1389.68
831.58	1319.55
831.761	1343.96
831.942	1364.3
832.123	1320.52
832.304	1268.01
832.485	1320.32
832.666	1333.89
832.847	1344.73
833.028	1335.44
833.209	1333.69
833.389	1317.8
833.57	1246.31
833.751	1310.64
833.932	1345.12
834.113	1360.82
834.294	1286.03
834.475	1360.62
834.655	1381.55
834.836	1400.34
835.017	1348.61
835.198	1312.96
835.378	1385.03
835.559	1339.31
835.74	1360.04
835.92	1350.74
836.101	1316.64
836.281	1370.7
836.462	1358.88
836.643	1400.34
836.823	1407.9
837.004	1391.23
837.184	1424.75
837.365	1389.88
837.545	1412.16
837.726	1379.8
837.906	1440.25
838.087	1403.05
838.267	1386
838.448	1352.87
838.628	1382.13
838.808	1396.66
838.989	1472.22
839.169	1357.91
839.349	1430.18
839.53	1444.32
839.71	1429.01
839.89	1400.73
840.07	1442.96
840.251	1374.77
840.431	1434.63
840.611	1431.15
840.791	1352.1
840.971	1418.94
841.151	1377.67
841.332	1370.5
841.512	1425.72
841.692	1346.28
841.872	1415.65
842.052	1361.98
842.232	1398.6
842.412	1348.42
842.592	1335.82
842.772	1373.6
842.952	1369.15
843.132	1371.67
843.312	1356.94
843.492	1336.6
843.672	1370.12
843.851	1298.62
844.031	1360.43
844.211	1331.56
844.391	1341.05
844.571	1358.88
844.751	1413.9
844.93	1358.1
845.11	1343.57
845.29	1379.42
845.47	1380.58
845.649	1348.61
845.829	1378.64
846.009	1382.13
846.188	1335.82
846.368	1379.42
846.547	1346.09
846.727	1398.02
846.907	1274.4
847.086	1353.07
847.266	1402.86
847.445	1340.86
847.625	1345.9
847.804	1304.24
847.984	1304.24
848.163	1303.08
848.343	1288.74
848.522	1346.67
848.701	1339.89
848.881	1289.32
849.06	1309.28
849.239	1325.36
849.419	1315.29
849.598	1229.26
849.777	1288.55
849.957	1292.04
850.136	1178.5
850.315	1195.94
850.494	1197.1
850.674	1206.59
850.853	1262.2
851.032	1234.69
851.211	1279.05
851.39	1215.12
851.569	1224.03
851.748	1218.99
851.927	1238.37
852.107	1246.51
852.286	1201.36
852.465	1168.62
852.644	1234.69
852.823	1253.09
853.002	1223.26
853.181	1202.33
853.359	1237.79
853.538	1192.26
853.717	1253.67
853.896	1116.89
854.075	1121.54
854.254	1085.11
854.433	1018.08
854.611	1069.81
854.79	1030.86
854.969	1077.75
855.148	1094.41
855.327	1073.3
855.505	1075.62
855.684	1089.38
855.863	1097.9
856.041	1117.28
856.22	1131.03
856.399	1111.46
856.577	1193.42
856.756	1157.38
856.934	1290.49
857.113	1299.98
857.291	1188.38
857.47	1156.41
857.648	1179.08
857.827	1153.7
858.005	1225.19
858.184	1163.78
858.362	1235.07
858.541	1181.79
858.719	1162.61
858.898	1155.64
859.076	1159.32
859.254	1220.16
859.433	1144.59
859.611	1152.15
859.789	1105.84
859.967	1219.77
860.146	1201.17
860.324	1091.7
860.502	1138.39
860.68	1102.94
860.859	1120.76
861.037	1117.28
861.215	1166.1
861.393	1135.49
861.571	1138.59
861.749	1116.31
861.927	1151.96
862.105	1133.36
862.283	1102.16
862.461	1097.13
862.639	1075.43
862.817	1091.7
862.995	1088.21
863.173	1101.58
863.351	1134.13
863.529	1134.52
863.707	1163.39
863.885	1104.1
864.063	1082.98
864.241	1067.87
864.418	1122.31
864.596	1051.21
864.774	1032.41
864.952	1069.42
865.129	1103.71
865.307	1044.04
865.485	999.86
865.663	1104.29
865.84	1011.68
866.018	1019.82
866.196	894.27
866.373	952.78
866.551	942.32
866.728	880.13
866.906	942.9
867.084	955.88
867.261	976.03
867.439	983.01
867.616	1010.91
867.794	975.65
867.971	980.1
868.149	1006.26
868.326	1062.25
868.503	1030.09
868.681	1006.26
868.858	989.98
869.035	995.8
869.213	990.56
869.39	959.37
869.567	1070.97
869.745	955.5
869.922	1004.32
870.099	1027.76
870.276	1008.39
870.454	1001.41
870.631	1005.48
870.808	988.05
870.985	1031.64
871.162	1066.32
871.339	1054.7
871.517	942.13
871.694	940.58
871.871	1012.07
872.048	962.67
872.225	970.61
872.402	1014.59
872.579	906.87
872.756	991.53
872.933	911.32
873.11	971.38
873.287	980.49
873.463	966.15
873.64	940.38
873.817	1012.26
873.994	946.97
874.171	910.16
874.348	958.6
874.524	909.77
874.701	905.9
874.878	891.75
875.055	942.13
875.231	921.2
875.408	954.14
875.585	890.01
875.762	918.88
875.938	888.65
876.115	931.86
876.291	920.62
876.468	903.38
876.645	869.67
876.821	906.28
876.998	896.6
877.174	911.71
877.351	902.41
877.527	869.67
877.704	852.23
877.88	899.31
878.057	887.88
878.233	929.15
878.409	881.29
878.586	884.78
878.762	891.56
878.938	883.04
879.115	824.14
879.291	897.95
879.467	818.71
879.644	863.85
879.82	886.33
879.996	847.19
880.172	824.14
880.349	837.5
880.525	874.12
880.701	805.34
880.877	805.15
881.053	860.95
881.229	840.22
881.405	869.09
881.581	841.57
881.757	833.24
881.933	864.24
882.109	836.15
882.285	833.05
882.461	792.94
882.637	845.25
882.813	786.94
882.989	811.35
883.165	872.19
883.341	835.95
883.517	883.81
883.693	838.28
883.869	847
884.044	832.27
884.22	868.5
884.396	868.31
884.572	828.01
884.747	873.35
884.923	875.48
885.099	876.25
885.275	868.89
885.45	789.07
885.626	814.64
885.801	815.61
885.977	821.23
886.153	777.64
886.328	837.5
886.504	808.25
886.679	862.69
886.855	788.49
887.03	836.92
887.206	856.3
887.381	867.34
887.557	824.52
887.732	884.97
887.908	847.97
888.083	867.73
888.258	803.02
888.434	799.53
888.609	804.76
888.784	898.54
888.96	815.61
889.135	813.67
889.31	816.19
889.485	836.73
889.661	819.49
889.836	850.68
890.011	846.22
890.186	807.86
890.361	800.11
890.537	865.99
890.712	847.77
890.887	838.28
891.062	829.17
891.237	914.81
891.412	814.64
891.587	834.02
891.762	862.69
891.937	857.46
892.112	808.25
892.287	808.83
892.462	788.87
892.637	791.97
892.812	771.44
892.987	743.73
893.161	739.66
893.336	767.17
893.511	779.38
893.686	768.14
893.861	774.92
894.035	777.83
894.21	762.52
894.385	703.04
894.56	756.91
894.734	663.33
894.909	683.67
895.084	679.02
895.258	695.68
895.433	687.74
895.608	663.71
895.782	604.04
895.957	620.31
896.131	633.68
896.306	574.4
896.48	597.65
896.655	611.4
896.829	521.12
897.004	555.02
897.178	591.45
897.353	515.5
897.527	575.75
897.701	537.97
897.876	521.31
898.05	602.88
898.224	561.41
898.399	609.27
898.573	560.83
898.747	442.26
898.921	504.26
899.096	431.22
899.27	452.14
899.444	450.59
899.618	474.62
899.792	487.98
899.967	458.34
900.141	533.52
900.315	485.47
900.489	466.87
900.663	482.75
900.837	456.6
901.011	435.09
901.185	560.25
901.359	480.43
901.533	496.51
901.707	521.7
901.881	506.97
902.055	440.52
902.229	464.74
902.403	496.7
902.576	480.04
902.75	479.85
902.924	580.01
903.098	535.45
903.272	535.07
903.446	634.07
903.619	568.78
903.793	597.65
903.967	574.4
904.14	643.18
904.314	637.17
904.488	606.17
904.661	600.55
904.835	612.37
905.009	640.66
905.182	693.16
905.356	663.71
905.529	612.95
905.703	570.33
905.876	621.86
906.05	560.83
906.223	576.53
906.397	520.15
906.57	505.42
906.744	472.87
906.917	483.33
907.09	478.49
907.264	462.99
907.437	438
907.61	464.15
907.784	452.34
907.957	459.31
908.13	436.06
908.304	476.75
908.477	426.76
908.65	458.15
908.823	392.27
908.996	463.19
909.17	425.4
909.343	423.47
909.516	440.32
909.689	422.89
909.862	418.04
910.035	440.32
910.208	422.3
910.381	402.74
910.554	456.02
910.727	416.69
910.9	430.05
911.073	413.78
911.246	474.81
911.419	446.52
911.592	459.89
911.765	415.91
911.938	438.58
912.11	440.71
912.283	405.84
912.456	456.6
912.629	429.09
912.802	415.91
912.974	388.98
913.147	354.88
913.32	303.92
913.493	364.96
913.665	336.09
913.838	375.22
914.01	355.66
914.183	393.24
914.356	357.59
914.528	389.75
914.701	427.34
914.873	431.41
915.046	363.99
915.218	322.72
915.391	287.65
915.563	315.16
915.736	373.09
915.908	356.82
916.081	356.62
916.253	368.83
916.425	345.77
916.598	366.7
916.77	380.07
916.942	326.59
917.115	281.45
917.287	365.54
917.459	336.67
917.632	314.77
917.804	280.68
917.976	343.64
918.148	340.54
918.32	337.64
918.493	346.94
918.665	410.29
918.837	363.79
919.009	415.52
919.181	419.4
919.353	388.01
919.525	377.55
919.697	400.22
919.869	376
920.041	433.35
920.213	493.22
920.385	424.05
920.557	389.17
920.729	420.37
920.901	408.55
921.073	397.12
921.244	340.35
921.416	423.27
921.588	395.37
921.76	387.62
921.932	423.85
922.103	400.41
922.275	396.34
922.447	394.6
922.619	315.36
922.79	369.8
922.962	374.64
923.134	408.35
923.305	343.45
923.477	338.61
923.648	336.47
923.82	326.79
923.991	298.89
924.163	304.7
924.335	306.64
924.506	309.74
924.677	386.07
924.849	286.29
925.02	345.97
925.192	364.76
925.363	330.86
925.535	336.86
925.706	295.21
925.877	362.44
926.049	323.88
926.22	317.68
926.391	357.21
926.562	359.92
926.734	296.76
926.905	361.66
927.076	281.84
927.247	318.65
927.419	266.14
927.59	263.63
927.761	281.64
927.932	255.49
928.103	269.05
928.274	276.03
928.445	229.53
928.616	232.04
928.787	243.67
928.958	258.2
929.129	240.38
929.3	234.37
929.471	200.27
929.642	159.97
929.813	110.37
929.984	204.34
930.155	161.91
930.326	179.15
930.496	152.41
930.667	127.42
930.838	120.45
931.009	106.11
931.18	136.72
931.35	129.16
931.521	156.87
931.692	70.07
931.863	46.24
932.033	85.96
932.204	91.19
932.374	105.72
932.545	54.57
932.716	105.92
932.886	100.3
933.057	27.25
933.227	61.16
933.398	115.41
933.568	35.39
933.739	10.01
933.909	31.52
934.08	89.45
934.25	5.17
934.421	24.54
934.591	56.9
934.761	19.7
934.932	-9.17
935.102	70.46
935.272	35
935.443	27.64
935.613	42.75
935.783	38.49
935.953	8.46
936.123	161.91
936.294	28.42
936.464	25.32
936.634	36.94
936.804	17.37
936.974	-27.19
937.144	40.43
937.314	40.82
937.484	2.84
937.655	19.31
937.825	104.56
937.995	10.4
938.165	61.35
938.334	57.09
938.504	56.12
938.674	26.87
938.844	48.57
939.014	113.47
939.184	80.34
939.354	122
939.524	102.43
939.694	89.06
939.863	68.91
940.033	117.54
940.203	125.1
940.373	101.46
940.542	87.51
940.712	65.03
940.882	109.4
941.051	94.87
941.221	85.57
941.391	149.12
941.56	72.78
941.73	29.77
941.899	152.61
942.069	77.43
942.238	74.14
942.408	80.34
942.577	89.64
942.747	70.27
942.916	25.32
943.086	43.33
943.255	68.13
943.425	72.01
943.594	44.69
943.763	4
943.933	15.24
944.102	-27.38
944.271	47.98
944.441	61.74
944.61	52.25
944.779	42.75
944.948	136.14
945.117	16.21
945.287	35.78
945.456	-8.01
945.625	39.65
945.794	70.27
945.963	42.95
946.132	56.51
946.301	61.55
946.47	67.55
946.639	5.55
946.808	31.71
946.977	74.72
947.146	73.95
947.315	46.05
947.484	81.31
947.653	47.21
947.822	48.18
947.991	6.52
948.16	121.03
948.329	91.77
948.498	59.22
948.666	38.88
948.835	95.84
949.004	4.78
949.173	1.29
949.341	53.02
949.51	58.25
949.679	83.63
949.847	83.25
950.016	133.23
950.185	82.86
950.353	19.31
950.522	48.95
950.69	93.71
950.859	53.41
951.028	74.14
951.196	65.23
951.365	58.25
951.533	35.2
951.701	76.08
951.87	84.8
952.038	30.93
952.207	39.27
952.375	118.31
952.543	24.74
952.712	67.36
952.88	61.35
953.048	108.43
953.217	58.64
953.385	37.52
953.553	122.19
953.721	21.64
953.89	36.94
954.058	29.58
954.226	61.16
954.394	58.64
954.562	2.84
954.73	35.78
954.898	44.88
955.067	93.71
955.235	29.77
955.403	103.2
955.571	130.52
955.739	92.74
955.907	21.44
956.075	44.11
956.243	23.38
956.41	72.78
956.578	3.23
956.746	-13.43
956.914	35.2
957.082	81.7
957.25	55.35
957.418	7.3
957.585	70.85
957.753	99.33
957.921	21.05
958.089	55.54
958.256	86.93
958.424	70.07
958.592	76.27
958.759	21.64
958.927	68.52
959.095	41.78
959.262	78.02
959.43	62.32
959.597	46.24
959.765	64.84
959.932	35.78
960.1	92.55
960.267	73.17
960.435	65.62
960.602	110.95
960.77	32.87
960.937	15.82
961.104	65.23
961.272	12.14
961.439	41.4
961.606	78.6
961.774	112.31
961.941	29.97
962.108	71.23
962.275	78.6
962.443	87.51
962.61	66.39
962.777	118.31
962.944	82.86
963.111	69.88
963.278	80.92
963.446	100.49
963.613	73.56
963.78	72.01
963.947	89.06
964.114	59.03
964.281	132.46
964.448	121.41
964.615	51.47
964.782	90.42
964.949	92.16
965.116	97.78
965.282	105.72
965.449	73.17
965.616	43.72
965.783	85.38
965.95	95.07
966.117	43.33
966.283	64.65
966.45	63.48
966.617	84.6
966.784	132.26
966.95	127.81
967.117	114.25
967.284	61.16
967.45	61.35
967.617	122.77
967.784	102.62
967.95	119.09
968.117	82.86
968.283	144.08
968.45	211.89
968.616	103.78
968.783	115.41
968.949	95.65
969.116	128.39
969.282	89.06
969.449	111.15
969.615	80.53
969.781	71.04
969.948	77.43
970.114	35.58
970.28	127.81
970.447	103.01
970.613	132.26
970.779	92.93
970.945	126.26
971.112	84.41
971.278	108.24
971.444	88.87
971.61	132.65
971.776	79.18
971.942	106.69
972.108	129.36
972.275	77.63
972.441	110.95
972.607	136.14
972.773	72.4
972.939	99.33
973.105	100.1
973.271	47.98
973.437	79.76
973.602	71.82
973.768	109.4
973.934	87.9
974.1	105.92
974.266	5.75
974.432	93.13
974.598	64.07
974.763	101.85
974.929	62.71
975.095	105.33
975.261	61.55
975.426	40.82
975.592	43.92
975.758	132.07
975.923	40.43
976.089	54.77
976.255	108.82
976.42	84.41
976.586	86.15
976.751	94.29
976.917	172.95
977.082	85.57
977.248	64.07
977.413	34.81
977.579	41.59
977.744	91.19
977.91	32.1
978.075	72.78
978.24	100.1
978.406	75.69
978.571	40.23
978.736	51.47
978.902	86.93
979.067	40.23
979.232	22.02
979.397	98.55
979.563	107.85
979.728	55.54
979.893	93.9
980.058	53.41
980.223	129.16
980.388	55.73
980.554	66.58
980.719	68.52
980.884	82.28
981.049	126.26
981.214	64.26
981.379	93.13
981.544	43.92
981.709	80.92
981.874	71.82
982.039	67.36
982.204	90.42
982.368	79.76
982.533	64.84
982.698	96.23
982.863	121.03
983.028	77.24
983.193	83.63
983.357	58.45
983.522	87.32
983.687	75.5
983.852	86.15
984.016	87.9
984.181	83.05
984.346	89.06
984.51	87.51
984.675	64.45
984.839	83.83
985.004	78.4
985.168	132.85
985.333	105.92
985.498	62.13
985.662	94.48
985.827	99.91
985.991	66.58
986.155	70.85
986.32	101.65
986.484	147.96
986.649	109.4
986.813	21.25
986.977	86.73
987.142	115.6
987.306	41.2
987.47	64.65
987.634	90.61
987.799	105.33
987.963	85.57
988.127	94.68
988.291	150.86
988.455	73.56
988.62	70.07
988.784	94.1
988.948	94.68
989.112	57.09
989.276	98.17
989.44	87.9
989.604	20.47
989.768	47.02
989.932	125.48
990.096	36.55
990.26	39.85
990.424	60.77
990.588	60.19
990.752	141.95
990.915	85.18
991.079	45.47
991.243	62.71
991.407	88.67
991.571	76.47
991.734	103.01
991.898	80.15
992.062	145.83
992.226	60.77
992.389	34.42
992.553	31.71
992.717	43.33
992.88	57.67
993.044	77.43
993.207	56.12
993.371	101.27
993.535	80.34
993.698	82.86
993.862	99.91
994.025	89.25
994.189	90.03
994.352	57.67
994.515	55.54
994.679	110.18
994.842	34.81
995.006	124.13
995.169	44.69
995.332	45.85
995.496	90.8
995.659	4.78
995.822	64.45
995.985	47.4
996.149	102.23
996.312	53.99
996.475	102.82
996.638	67.55
996.801	120.64
996.964	118.9
997.128	66.58
997.291	53.22
997.454	47.21
997.617	20.67
997.78	100.68
997.943	42.37
998.106	96.62
998.269	51.28
998.432	78.79
998.595	52.44
998.758	9.82
998.92	21.25
999.083	11.37
999.246	59.8
999.409	8.65
999.572	-2.2
999.735	47.21
999.897	57.09
1000.06	37.72
1000.223	38.3
1000.386	52.83
1000.548	99.13
1000.711	69.68
1000.874	60.97
1001.036	14.08
1001.199	72.4
1001.361	42.17
1001.524	57.67
1001.687	75.69
1001.849	27.06
1002.012	43.53
1002.174	62.9
1002.337	66
1002.499	36.36
1002.661	92.35
1002.824	21.83
1002.986	10.4
1003.149	47.02
1003.311	15.44
1003.473	94.29
1003.636	37.33
1003.798	57.87
1003.96	41.59
1004.123	57.28
1004.285	51.28
1004.447	65.23
1004.609	27.45
1004.771	93.9
1004.933	8.85
1005.096	18.54
1005.258	5.75
1005.42	29.58
1005.582	68.52
1005.744	40.82
1005.906	-10.53
1006.068	50.7
1006.23	7.1
1006.392	-8.01
1006.554	7.49
1006.716	76.47
1006.878	58.83
1007.04	-9.75
1007.202	16.4
1007.363	60.38
1007.525	59.42
1007.687	55.73
1007.849	94.68
1008.011	-13.82
1008.172	2.45
1008.334	10.59
1008.496	55.73
1008.658	-13.05
1008.819	19.31
1008.981	-15.95
1009.143	23.77
1009.304	13.5
1009.466	59.22
1009.627	83.83
1009.789	139.63
1009.95	50.7
1010.112	26.67
1010.273	41.2
1010.435	-12.85
1010.596	35.58
1010.758	57.48
1010.919	38.1
1011.081	-15.56
1011.242	28.61
1011.403	49.53
1011.565	61.74
1011.726	47.98
1011.887	1.29
1012.049	27.06
1012.21	65.62
1012.371	81.7
1012.532	-49.86
1012.693	24.93
1012.855	12.92
1013.016	36.55
1013.177	72.2
1013.338	58.06
1013.499	82.28
1013.66	52.63
1013.821	35.78
1013.982	61.74
1014.143	38.1
1014.304	24.54
1014.465	48.76
1014.626	62.9
1014.787	22.02
1014.948	97.58
1015.109	-51.99
1015.27	43.53
1015.431	7.69
1015.592	1.49
1015.752	73.17
1015.913	18.54
1016.074	49.92
1016.235	24.93
1016.395	15.05
1016.556	26.09
1016.717	30.74
1016.877	89.45
1017.038	17.18
1017.199	46.05
1017.359	-2.39
1017.52	8.27
1017.681	5.36
1017.841	17.57
1018.002	17.37
1018.162	4
1018.323	69.3
1018.483	37.72
1018.644	-3.55
1018.804	-15.56
1018.964	-45.6
1019.125	42.37
1019.285	28.61
1019.446	12.14
1019.606	13.69
1019.766	-33.39
1019.926	39.27
1020.087	40.23
1020.247	-2.58
1020.407	54.77
1020.567	66.39
1020.728	10.4
1020.888	-27.77
1021.048	-4.91
1021.208	-8.01
1021.368	6.91
1021.528	48.37
1021.688	41.01
1021.848	51.86
1022.008	19.31
1022.168	21.25
1022.328	14.08
1022.488	35
1022.648	16.99
1022.808	-0.26
1022.968	34.23
1023.128	-5.3
1023.288	9.04
1023.448	2.45
1023.608	49.53
1023.767	47.21
1023.927	13.69
1024.087	-1.23
1024.247	-21.76
1024.406	5.17
1024.566	-10.72
1024.726	-1.61
1024.885	14.66
1025.045	32.1
1025.205	29.77
1025.364	14.85
1025.524	33.45
1025.683	8.65
1025.843	36.75
1026.003	9.62
1026.162	64.45
1026.321	51.67
1026.481	3.62
1026.64	-43.08
1026.8	31.52
1026.959	12.92
1027.119	24.35
1027.278	0.32
1027.437	5.17
1027.597	29.58
1027.756	31.52
1027.915	37.72
1028.074	40.62
1028.234	-9.56
1028.393	29.77
1028.552	16.99
1028.711	-21.96
1028.87	55.73
1029.03	-14.4
1029.189	22.02
1029.348	-32.23
1029.507	-2.39
1029.666	-5.3
1029.825	-34.94
1029.984	14.66
1030.143	14.66
1030.302	-30.87
1030.461	-63.42
1030.62	2.84
1030.779	49.92
1030.938	-25.45
1031.097	-9.75
1031.255	48.37
1031.414	58.64
1031.573	46.43
1031.732	-37.46
1031.891	18.15
1032.049	33.84
1032.208	14.08
1032.367	-27.38
1032.525	-1.42
1032.684	13.89
1032.843	31.13
1033.001	-22.73
1033.16	124.71
1033.319	62.52
1033.477	29.58
1033.636	1.87
1033.794	-43.08
1033.953	11.56
1034.111	3.81
1034.27	5.75
1034.428	34.62
1034.587	-22.15
1034.745	20.28
1034.903	4.78
1035.062	40.82
1035.22	-28.74
1035.378	32.48
1035.537	-32.23
1035.695	48.95
1035.853	-7.43
1036.011	17.18
1036.17	33.26
1036.328	-40.95
1036.486	1.29
1036.644	21.83
1036.802	-62.64
1036.96	-33.58
1037.119	-0.26
1037.277	-19.83
1037.435	-32.23
1037.593	-33.2
1037.751	-0.65
1037.909	32.87
1038.067	32.87
