Data from oakcork_FLMT105791__7__17-26-42-067.txt Node

Date: Mon Mar 20 17:26:42 GMT 2023
User: antho
Spectrometer: FLMT10579
Trigger mode: 0
Integration Time (sec): 1.000000E-1
Scans to average: 10
Electric dark correction enabled: true
Nonlinearity correction enabled: false
Boxcar width: 0
XAxis mode: Wavelengths
Number of Pixels in Spectrum: 3648
>>>>>Begin Spectral Data<<<<<
345.248	-157.77
345.464	-157.77
345.681	-157.77
345.898	-174.05
346.114	-149.44
346.331	-27.77
346.548	16.02
346.764	7.49
346.981	11.56
347.197	-8.01
347.414	17.18
347.631	-6.46
347.847	36.75
348.064	-16.15
348.28	27.45
348.497	-48.89
348.713	-9.17
348.93	15.05
349.146	40.62
349.363	1.87
349.579	-0.26
349.796	-4.71
350.012	-6.85
350.229	16.6
350.445	-14.21
350.661	-29.9
350.878	28.22
351.094	26.48
351.311	33.07
351.527	28.61
351.743	-10.33
351.96	33.65
352.176	43.72
352.392	3.23
352.609	28.03
352.825	0.71
353.041	9.82
353.257	-15.56
353.474	22.8
353.69	6.52
353.906	33.65
354.122	-4.52
354.339	63.68
354.555	6.91
354.771	-3.75
354.987	52.44
355.203	59.8
355.42	-18.08
355.636	5.36
355.852	-1.23
356.068	1.29
356.284	-31.84
356.5	35.97
356.716	19.12
356.932	-7.43
357.148	42.95
357.364	-20.41
357.58	42.17
357.796	55.35
358.012	50.5
358.228	12.72
358.444	-75.82
358.66	37.13
358.876	13.69
359.092	-10.72
359.308	7.3
359.524	25.12
359.74	3.81
359.956	-9.17
360.172	-9.75
360.388	63.29
360.604	16.02
360.819	79.37
361.035	23.19
361.251	20.47
361.467	16.6
361.683	47.6
361.898	14.27
362.114	20.86
362.33	20.47
362.546	72.78
362.762	-1.61
362.977	15.44
363.193	-37.46
363.409	67.17
363.624	14.85
363.84	-5.1
364.056	1.49
364.271	16.02
364.487	21.83
364.703	-9.56
364.918	-36.1
365.134	-1.03
365.35	9.24
365.565	92.16
365.781	25.7
365.996	23.38
366.212	79.37
366.427	13.11
366.643	-26.8
366.858	1.49
367.074	-51.6
367.289	49.92
367.505	121.61
367.72	-19.05
367.936	9.04
368.151	64.45
368.367	46.63
368.582	31.13
368.798	1.29
369.013	53.41
369.228	30.74
369.444	12.92
369.659	52.05
369.874	51.47
370.09	74.53
370.305	-68.26
370.52	-2.78
370.736	65.62
370.951	44.5
371.166	55.54
371.381	78.02
371.597	40.62
371.812	10.01
372.027	-19.83
372.242	18.54
372.458	96.81
372.673	0.9
372.888	49.73
373.103	45.47
373.318	94.48
373.533	25.51
373.749	45.85
373.964	-11.69
374.179	79.37
374.394	8.65
374.609	56.32
374.824	-26.41
375.039	66
375.254	-31.84
375.469	76.27
375.684	35.58
375.899	77.63
376.114	22.02
376.329	15.44
376.544	53.22
376.759	57.09
376.974	-0.45
377.189	33.65
377.404	11.37
377.619	46.24
377.834	-21.57
378.049	-31.26
378.264	2.07
378.478	50.31
378.693	4.97
378.908	31.32
379.123	14.66
379.338	67.94
379.553	19.31
379.767	22.8
379.982	36.55
380.197	46.82
380.412	41.59
380.626	33.45
380.841	99.13
381.056	61.16
381.271	68.91
381.485	0.52
381.7	5.36
381.915	40.82
382.129	8.46
382.344	55.93
382.559	5.55
382.773	56.9
382.988	-14.79
383.202	32.68
383.417	-26.22
383.632	109.02
383.846	23.57
384.061	16.4
384.275	8.07
384.49	55.73
384.704	47.6
384.919	37.52
385.133	37.33
385.348	51.86
385.562	-19.44
385.777	53.99
385.991	36.17
386.206	-3.75
386.42	13.5
386.634	55.15
386.849	70.27
387.063	59.42
387.277	-0.45
387.492	2.26
387.706	-11.88
387.92	11.56
388.135	76.47
388.349	35.39
388.563	57.48
388.778	50.31
388.992	66
389.206	72.4
389.42	102.43
389.635	36.75
389.849	66
390.063	83.63
390.277	57.28
390.491	101.07
390.706	58.64
390.92	94.29
391.134	40.04
391.348	73.56
391.562	-13.24
391.776	57.48
391.99	16.79
392.205	95.45
392.419	41.4
392.633	20.09
392.847	106.69
393.061	1.49
393.275	65.23
393.489	55.54
393.703	47.98
393.917	64.84
394.131	31.13
394.345	72.59
394.559	64.45
394.773	37.33
394.986	52.63
395.2	33.45
395.414	96.23
395.628	43.53
395.842	53.99
396.056	49.73
396.27	7.88
396.484	59.22
396.697	35.39
396.911	86.54
397.125	63.29
397.339	67.55
397.553	72.01
397.766	99.13
397.98	88.87
398.194	66.97
398.408	51.86
398.621	91.38
398.835	117.35
399.049	84.6
399.262	136.72
399.476	96.42
399.69	98.55
399.903	146.8
400.117	85.96
400.331	100.1
400.544	70.85
400.758	206.86
400.971	115.8
401.185	119.86
401.398	65.42
401.612	151.45
401.826	128.39
402.039	91.77
402.253	76.85
402.466	111.34
402.68	99.13
402.893	94.48
403.106	92.93
403.32	79.57
403.533	129.75
403.747	98.55
403.96	84.8
404.174	110.37
404.387	45.27
404.6	121.61
404.814	114.63
405.027	86.73
405.24	98.75
405.454	103.78
405.667	152.41
405.88	57.87
406.094	114.25
406.307	147.57
406.52	124.32
406.733	57.67
406.947	45.08
407.16	175.47
407.373	147.18
407.586	76.47
407.799	84.6
408.012	123.74
408.226	116.96
408.439	159.39
408.652	75.69
408.865	124.71
409.078	155.9
409.291	143.7
409.504	75.88
409.717	122
409.93	130.52
410.143	127.81
410.357	55.93
410.57	64.07
410.783	109.21
410.996	136.14
411.209	120.25
411.421	163.46
411.634	132.65
411.847	102.62
412.06	132.85
412.273	114.25
412.486	107.08
412.699	207.44
412.912	131.88
413.125	154.55
413.338	135.17
413.55	159.58
413.763	123.93
413.976	150.09
414.189	103.4
414.402	121.8
414.615	200.66
414.827	113.86
415.04	163.65
415.253	165.98
415.466	166.17
415.678	209.96
415.891	132.85
416.104	153.38
416.316	150.28
416.529	107.85
416.742	154.55
416.954	156.68
417.167	124.13
417.38	152.41
417.592	182.25
417.805	125.29
418.017	109.79
418.23	157.84
418.442	121.61
418.655	126.84
418.868	153.77
419.08	176.83
419.293	186.9
419.505	158.03
419.718	154.55
419.93	184.96
420.142	168.88
420.355	186.13
420.567	169.85
420.78	157.65
420.992	143.31
421.205	204.73
421.417	105.72
421.629	149.31
421.842	140.6
422.054	115.99
422.266	192.13
422.479	173.15
422.691	119.67
422.903	197.95
423.115	136.91
423.328	116.18
423.54	163.65
423.752	121.03
423.964	137.11
424.177	175.86
424.389	144.66
424.601	227.78
424.813	159.2
425.025	180.7
425.238	171.98
425.45	170.82
425.662	125.68
425.874	454.85
426.086	158.81
426.298	207.44
426.51	166.36
426.722	186.13
426.934	157.84
427.146	186.32
427.358	143.89
427.57	201.82
427.782	148.54
427.994	170.82
428.206	127.61
428.418	113.47
428.63	170.82
428.842	198.53
429.054	178.57
429.266	214.22
429.478	128.2
429.69	144.86
429.902	101.85
430.114	172.37
430.325	157.65
430.537	154.55
430.749	149.12
430.961	115.41
431.173	138.08
431.384	174.89
431.596	82.08
431.808	141.95
432.02	182.45
432.231	206.28
432.443	184.96
432.655	181.09
432.867	168.69
433.078	216.35
433.29	247.93
433.502	202.98
433.713	229.33
433.925	214.61
434.136	233.01
434.348	146.8
434.56	138.66
434.771	270.41
434.983	148.35
435.194	174.7
435.406	206.47
435.617	235.92
435.829	257.43
436.04	245.8
436.252	220.42
436.463	257.23
436.675	273.31
436.886	232.63
437.098	236.31
437.309	267.5
437.521	217.32
437.732	236.31
437.943	214.41
438.155	232.63
438.366	171.4
438.578	262.27
438.789	208.99
439	233.59
439.211	220.42
439.423	245.41
439.634	226.62
439.845	261.49
440.057	231.66
440.268	275.44
440.479	221.39
440.69	235.73
440.902	240.57
441.113	241.54
441.324	220.81
441.535	259.75
441.746	281.26
441.957	199.11
442.168	241.15
442.38	269.63
442.591	279.71
442.802	207.05
443.013	228.75
443.224	264.79
443.435	242.89
443.646	249.29
443.857	246.38
444.068	223.91
444.279	187.87
444.49	321.94
444.701	281.06
444.912	365.34
445.123	299.66
445.334	285.71
445.545	276.61
445.756	261.88
445.967	231.08
446.178	275.64
446.388	305.09
446.599	283.19
446.81	284.74
447.021	264.21
447.232	318.07
447.443	296.37
447.653	247.74
447.864	312.84
448.075	275.64
448.286	319.23
448.496	298.11
448.707	317.29
448.918	268.66
449.129	378.9
449.339	274.09
449.55	310.71
449.761	274.48
449.971	335.51
450.182	266.92
450.393	320.2
450.603	299.86
450.814	343.06
451.024	316.32
451.235	326.79
451.446	373.67
451.656	358.56
451.867	281.26
452.077	335.51
452.288	353.91
452.498	355.85
452.709	269.05
452.919	324.85
453.13	270.02
453.34	366.7
453.55	248.9
453.761	313.61
453.971	334.92
454.182	362.05
454.392	314
454.602	376
454.813	331.24
455.023	342.09
455.233	297.14
455.444	322.52
455.654	256.84
455.864	286.88
456.075	285.13
456.285	275.83
456.495	340.74
456.705	343.06
456.916	380.07
457.126	391.5
457.336	348.87
457.546	276.99
457.756	293.85
457.967	380.45
458.177	325.04
458.387	332.6
458.597	316.52
458.807	307.61
459.017	314.58
459.227	320.78
459.437	327.95
459.647	368.64
459.857	367.86
460.068	347.71
460.278	349.07
460.488	365.92
460.698	415.14
460.908	356.82
461.117	318.84
461.327	326.4
461.537	344.81
461.747	357.98
461.957	351.01
462.167	433.93
462.377	351.78
462.587	337.25
462.797	384.72
463.007	359.53
463.216	407.97
463.426	408.35
463.636	400.8
463.846	314.19
464.056	312.84
464.265	393.05
464.475	360.5
464.685	361.86
464.895	384.91
465.104	358.37
465.314	409.52
465.524	387.04
465.733	338.02
465.943	449.04
466.153	444
466.362	414.55
466.572	376.77
466.782	351.01
466.991	363.79
467.201	435.67
467.41	346.74
467.62	394.79
467.829	392.27
468.039	392.85
468.249	370.57
468.458	398.28
468.668	436.06
468.877	417.65
469.086	435.29
469.296	470.93
469.505	362.63
469.715	473.26
469.924	414.94
470.134	455.82
470.343	454.66
470.552	404.09
470.762	394.4
470.971	370.19
471.18	424.44
471.39	389.75
471.599	381.23
471.808	439.35
472.018	415.33
472.227	469.58
472.436	454.08
472.645	418.82
472.855	411.26
473.064	492.63
473.273	451.95
473.482	463.96
473.691	487.21
473.901	462.6
474.11	435.48
474.319	554.83
474.528	456.99
474.737	526.73
474.946	504.45
475.155	499.8
475.364	522.08
475.573	501.35
475.783	491.47
475.992	504.07
476.201	540.3
476.41	484.5
476.619	480.04
476.828	468.42
477.037	475.39
477.245	523.05
477.454	515.88
477.663	503.1
477.872	502.71
478.081	562.19
478.29	480.82
478.499	580.98
478.708	494.96
478.917	606.95
479.125	527.51
479.334	529.06
479.543	526.54
479.752	565.1
479.961	545.53
480.169	583.5
480.378	558.9
480.587	663.91
480.796	590.28
481.004	542.04
481.213	589.31
481.422	594.55
481.63	572.07
481.839	613.73
482.048	637.17
482.256	571.68
482.465	620.9
482.674	611.21
482.882	645.31
483.091	661
483.299	616.63
483.508	605.78
483.716	638.91
483.925	617.21
484.134	608.88
484.342	618.76
484.551	627.87
484.759	652.09
484.967	657.13
485.176	656.93
485.384	680.57
485.593	708.86
485.801	651.51
486.01	608.69
486.218	600.75
486.426	543.2
486.635	569.16
486.843	565.29
487.051	612.76
487.26	589.31
487.468	629.23
487.676	642.59
487.885	602.1
488.093	654.41
488.301	658.29
488.509	649.18
488.717	682.31
488.926	685.03
489.134	675.14
489.342	691.42
489.55	652.09
489.758	661
489.967	686.77
490.175	780.93
490.383	680.76
490.591	759.23
490.799	676.11
491.007	754.58
491.215	705.95
491.423	702.66
491.631	735.21
491.839	741.99
492.047	761.75
492.255	655.19
492.463	664.1
492.671	691.23
492.879	751.48
493.087	736.37
493.295	726.49
493.503	770.27
493.711	756.71
493.919	791.78
494.127	809.41
494.334	816.19
494.542	745.09
494.75	727.84
494.958	723
495.166	789.26
495.374	806.51
495.581	778.22
495.789	787.91
495.997	831.3
496.205	769.89
496.412	755.94
496.62	760.78
496.828	787.91
497.035	780.35
497.243	834.99
497.451	810.77
497.658	801.86
497.866	788.87
498.074	863.47
498.281	778.99
498.489	872.77
498.696	812.9
498.904	754.58
499.112	766.59
499.319	851.07
499.527	783.64
499.734	874.9
499.942	777.25
500.149	827.82
500.357	797.21
500.564	783.45
500.771	800.69
500.979	780.54
501.186	773.37
501.394	826.65
501.601	778.8
501.808	827.43
502.016	778.41
502.223	770.08
502.43	790.42
502.638	783.06
502.845	740.82
503.052	870.44
503.26	800.69
503.467	875.67
503.674	809.8
503.881	824.72
504.089	894.27
504.296	838.28
504.503	791.78
504.71	805.92
504.917	809.22
505.125	844.67
505.332	845.06
505.539	843.12
505.746	896.6
505.953	889.24
506.16	841.77
506.367	940.19
506.574	909.19
506.781	905.32
506.988	821.62
507.195	865.99
507.402	845.25
507.609	914.62
507.816	859.2
508.023	873.74
508.23	852.62
508.437	814.06
508.644	902.02
508.851	918.1
509.058	937.28
509.265	884.2
509.472	901.25
509.679	987.85
509.885	854.36
510.092	907.25
510.299	919.85
510.506	898.92
510.713	904.54
510.92	909.19
511.126	926.63
511.333	954.72
511.54	963.63
511.746	966.54
511.953	983.78
512.16	987.66
512.367	936.32
512.573	911.9
512.78	929.15
512.987	915.78
513.193	928.37
513.4	827.24
513.606	917.13
513.813	952.78
514.02	934.38
514.226	989.79
514.433	980.3
514.639	894.85
514.846	927.79
515.052	931.86
515.259	949.68
515.465	951.43
515.672	937.48
515.878	1017.3
516.085	977
516.291	1003.93
516.497	934.57
516.704	969.06
516.91	883.81
517.117	862.3
517.323	856.3
517.529	881.87
517.736	863.85
517.942	869.86
518.148	875.09
518.354	897.76
518.561	897.57
518.767	895.63
518.973	946.97
519.179	982.23
519.386	932.63
519.592	936.51
519.798	929.34
520.004	1002.38
520.21	980.88
520.417	1016.91
520.623	1031.06
520.829	1063.41
521.035	1046.75
521.241	1045.59
521.447	1062.45
521.653	1116.11
521.859	1042.68
522.065	1076.4
522.271	1121.73
522.477	1085.31
522.683	1099.06
522.889	1085.11
523.095	1062.64
523.301	1104.29
523.507	1045.4
523.713	1079.69
523.919	1037.45
524.125	1147.31
524.331	1070.39
524.537	1174.43
524.742	1137.81
524.948	1169.39
525.154	1154.28
525.36	1221.71
525.566	1132.58
525.772	1209.5
525.977	1130.45
526.183	1175.59
526.389	1185.86
526.595	1103.52
526.8	1111.46
527.006	1082.98
527.212	1023.89
527.417	1045.98
527.623	1027.76
527.829	1111.08
528.034	1101
528.24	1132.19
528.446	1096.74
528.651	1192.26
528.857	1166.29
529.062	1215.31
529.268	1192.84
529.473	1194
529.679	1194.97
529.884	1242.05
530.09	1203.11
530.295	1267.62
530.501	1219.96
530.706	1204.27
530.912	1191.09
531.117	1212.21
531.323	1210.27
531.528	1296.69
531.733	1256.77
531.939	1216.28
532.144	1275.37
532.35	1257.35
532.555	1265.88
532.76	1281.19
532.966	1277.5
533.171	1267.62
533.376	1207.76
533.581	1179.08
533.787	1247.86
533.992	1248.25
534.197	1280.02
534.402	1236.82
534.607	1263.36
534.813	1350.55
535.018	1287.97
535.223	1240.31
535.428	1308.31
535.633	1307.34
535.838	1327.69
536.043	1345.9
536.249	1380.97
536.454	1305.21
536.659	1313.54
536.864	1267.24
537.069	1287.58
537.274	1340.67
537.479	1342.6
537.684	1322.65
537.889	1266.85
538.094	1375.93
538.299	1322.84
538.504	1358.3
538.708	1323.42
538.913	1344.35
539.118	1349.19
539.323	1355
539.528	1295.33
539.733	1313.74
539.938	1343.77
540.142	1318.58
540.347	1315.67
540.552	1309.67
540.757	1311.6
540.962	1312.38
541.166	1271.5
541.371	1243.99
541.576	1297.46
541.781	1219.38
541.985	1333.89
542.19	1314.9
542.395	1364.5
542.599	1393.37
542.804	1390.46
543.008	1382.52
543.213	1361.78
543.418	1300.56
543.622	1367.98
543.827	1314.12
544.031	1418.36
544.236	1431.53
544.44	1381.35
544.645	1468.15
544.849	1348.42
545.054	1382.13
545.258	1461.56
545.463	1469.51
545.667	1334.27
545.872	1423.78
546.076	1379.22
546.281	1422.62
546.485	1370.89
546.689	1401.89
546.894	1433.47
547.098	1411.38
547.302	1373.22
547.507	1401.31
547.711	1390.07
547.915	1460.4
548.119	1371.08
548.324	1371.67
548.528	1456.91
548.732	1380.19
548.936	1386.97
549.141	1433.08
549.345	1368.76
549.549	1409.25
549.753	1396.85
549.957	1463.7
550.161	1484.23
550.366	1417.2
550.57	1372.05
550.774	1382.52
550.978	1414.87
551.182	1447.81
551.386	1373.99
551.59	1369.15
551.794	1404.6
551.998	1437.93
552.202	1401.5
552.406	1392.59
552.61	1429.79
552.814	1430.37
553.018	1503.03
553.222	1418.36
553.426	1386.97
553.63	1473.77
553.833	1386.58
554.037	1365.27
554.241	1449.75
554.445	1429.4
554.649	1421.85
554.853	1410.61
555.056	1438.12
555.26	1455.56
555.464	1422.04
555.668	1405.18
555.871	1435.6
556.075	1460.79
556.279	1372.63
556.483	1354.23
556.686	1398.98
556.89	1417.39
557.094	1411.58
557.297	1338.92
557.501	1432.11
557.704	1322.65
557.908	1441.8
558.112	1350.55
558.315	1433.66
558.519	1381.74
558.722	1340.28
558.926	1343.96
559.129	1298.04
559.333	1265.88
559.536	1292.81
559.74	1292.23
559.943	1282.35
560.147	1299.2
560.35	1283.12
560.553	1312.77
560.757	1272.08
560.96	1377.09
561.164	1290.87
561.367	1399.37
561.57	1333.69
561.774	1344.93
561.977	1307.34
562.18	1280.41
562.384	1375.35
562.587	1280.8
562.79	1312.96
562.993	1297.65
563.197	1363.72
563.4	1385.42
563.603	1373.6
563.806	1394.14
564.009	1287.19
564.212	1333.69
564.416	1261.42
564.619	1312.19
564.822	1252.12
565.025	1321.49
565.228	1278.67
565.431	1300.56
565.634	1207.95
565.837	1280.8
566.04	1248.83
566.243	1252.12
566.446	1179.66
566.649	1246.7
566.852	1181.6
567.055	1247.09
567.258	1306.18
567.461	1296.3
567.664	1304.63
567.867	1193.03
568.07	1271.69
568.273	1222.29
568.475	1266.46
568.678	1200.39
568.881	1207.95
569.084	1219.96
569.287	1137.04
569.489	1172.11
569.692	1236.24
569.895	1213.96
570.098	1153.89
570.3	1153.31
570.503	1115.73
570.706	1148.47
570.909	1138.39
571.111	1081.63
571.314	1091.89
571.516	1127.93
571.719	1159.51
571.922	1108.94
572.124	1116.89
572.327	1168.62
572.529	1083.18
572.732	1099.45
572.935	1140.14
573.137	1187.99
573.34	1152.73
573.542	1147.31
573.745	1128.13
573.947	1160.68
574.15	1084.92
574.352	1109.91
574.554	1172.49
574.757	1108.17
574.959	1068.45
575.162	1088.02
575.364	1066.51
575.566	1157.38
575.769	1052.76
575.971	1076.01
576.173	1007.03
576.376	1050.82
576.578	1116.89
576.78	1150.6
576.982	1019.24
577.185	1063.61
577.387	1038.23
577.589	1050.63
577.791	1074.65
577.993	1085.5
578.196	1026.21
578.398	1072.33
578.6	1104.68
578.802	996.96
579.004	1020.79
579.206	1019.82
579.408	1051.6
579.61	1028.35
579.812	1078.14
580.014	1027.76
580.216	1026.02
580.418	1024.66
580.62	1002.38
580.822	983.4
581.024	1049.46
581.226	1071.55
581.428	1047.14
581.63	1109.53
581.832	1015.95
582.034	1108.17
582.236	1035.13
582.438	1093.83
582.64	1110.88
582.841	1112.04
583.043	1168.42
583.245	1073.1
583.447	1113.98
583.649	1045.01
583.85	1071.36
584.052	1101.78
584.254	1029.7
584.456	1101.39
584.657	1015.17
584.859	1058.57
585.061	1057.21
585.262	1032.61
585.464	993.47
585.666	1062.25
585.867	1027.76
586.069	1074.46
586.27	1054.11
586.472	1067.68
586.674	1010.52
586.875	1003.16
587.077	1023.7
587.278	1029.7
587.48	1019.24
587.681	1132.78
587.883	1054.7
588.084	955.69
588.285	1011.49
588.487	987.08
588.688	1029.31
588.89	940.97
589.091	901.83
589.292	927.79
589.494	920.23
589.695	917.52
589.896	865.6
590.098	829.95
590.299	916.55
590.5	876.06
590.702	894.27
590.903	903.57
591.104	989.6
591.305	944.84
591.507	962.67
591.708	926.24
591.909	924.69
592.11	974.29
592.311	982.82
592.512	937.28
592.714	895.05
592.915	921.59
593.116	933.41
593.317	931.08
593.518	941.55
593.719	931.86
593.92	985.92
594.121	974.68
594.322	955.3
594.523	946.2
594.724	865.4
594.925	918.68
595.126	925.66
595.327	940.58
595.528	928.37
595.729	949.49
595.929	929.34
596.13	937.48
596.331	946.97
596.532	921.4
596.733	965.57
596.934	966.54
597.135	965.77
597.335	941.55
597.536	902.8
597.737	940.77
597.938	896.02
598.138	956.27
598.339	918.88
598.54	946.39
598.74	914.23
598.941	944.07
599.142	964.41
599.342	985.92
599.543	897.37
599.744	930.7
599.944	925.66
600.145	938.25
600.345	930.31
600.546	1024.66
600.746	980.49
600.947	1037.45
601.147	936.7
601.348	993.66
601.548	928.57
601.749	955.88
601.949	888.65
602.15	885.17
602.35	912.68
602.551	951.62
602.751	916.17
602.951	910.93
603.152	832.85
603.352	924.5
603.552	926.63
603.753	933.02
603.953	952.59
604.153	957.43
604.354	922.37
604.554	918.88
604.754	936.9
604.954	864.63
605.155	952.01
605.355	913.45
605.555	954.72
605.755	978.36
605.955	910.55
606.155	956.85
606.356	905.12
606.556	937.28
606.756	928.95
606.956	861.92
607.156	965.96
607.356	870.44
607.556	920.43
607.756	911.9
607.956	928.18
608.156	923.92
608.356	889.43
608.556	938.64
608.756	931.67
608.956	874.51
609.156	919.85
609.356	861.34
609.556	863.85
609.755	911.13
609.955	894.47
610.155	870.25
610.355	896.79
610.555	837.89
610.755	878
610.954	831.11
611.154	899.31
611.354	936.7
611.554	853.59
611.753	864.82
611.953	818.71
612.153	915
612.352	888.85
612.552	814.06
612.752	795.07
612.951	872.19
613.151	849.71
613.351	836.73
613.55	830.14
613.75	862.3
613.949	818.52
614.149	851.84
614.348	859.98
614.548	815.03
614.747	793.91
614.947	820.65
615.146	759.04
615.346	843.32
615.545	868.12
615.745	858.82
615.944	874.51
616.144	827.24
616.343	828.98
616.542	775.51
616.742	815.61
616.941	820.65
617.14	755.36
617.34	835.76
617.539	798.17
617.738	797.59
617.938	844.48
618.137	817.35
618.336	788.1
618.535	851.26
618.734	823.75
618.934	791.2
619.133	797.59
619.332	839.05
619.531	741.79
619.73	804.57
619.929	839.44
620.128	835.57
620.328	846.42
620.527	796.43
620.726	804.37
620.925	817.35
621.124	779.57
621.323	832.08
621.522	777.64
621.721	755.94
621.92	778.8
622.119	806.31
622.318	758.07
622.517	768.14
622.715	743.73
622.914	727.84
623.113	778.22
623.312	744.31
623.511	784.42
623.71	772.02
623.909	765.82
624.107	820.65
624.306	707.5
624.505	759.42
624.704	756.32
624.902	718.35
625.101	795.66
625.3	777.64
625.499	727.07
625.697	741.79
625.896	719.32
626.095	744.31
626.293	715.83
626.492	737.72
626.69	744.89
626.889	717.77
627.088	768.92
627.286	706.34
627.485	723.78
627.683	702.66
627.882	743.15
628.08	656.74
628.279	707.31
628.477	760.78
628.676	656.93
628.874	735.59
629.073	704.79
629.271	661.78
629.469	729.39
629.668	730.75
629.866	672.04
630.065	674.18
630.263	742.18
630.461	689.87
630.66	695.49
630.858	719.32
631.056	757.29
631.254	760.2
631.453	671.27
631.651	742.57
631.849	679.02
632.047	723.78
632.245	721.06
632.444	721.45
632.642	709.44
632.84	766.59
633.038	711.57
633.236	686.58
633.434	667.39
633.632	654.99
633.83	690.45
634.028	740.05
634.227	679.02
634.425	782.48
634.623	695.68
634.821	711.38
635.019	734.24
635.216	696.26
635.414	711.38
635.612	683.48
635.81	710.21
636.008	784.61
636.206	680.96
636.404	740.63
636.602	645.69
636.8	723.97
636.997	719.13
637.195	741.41
637.393	715.44
637.591	781.51
637.789	741.21
637.986	689.68
638.184	692.78
638.382	764.27
638.58	729.97
638.777	754.58
638.975	719.32
639.173	728.23
639.37	720.09
639.568	731.72
639.765	749.74
639.963	714.48
640.161	776.47
640.358	728.81
640.556	700.33
640.753	678.63
640.951	692.58
641.148	682.7
641.346	664.29
641.543	696.65
641.741	725.33
641.938	680.38
642.136	684.44
642.333	659.26
642.531	731.91
642.728	766.21
642.925	722.61
643.123	675.92
643.32	707.5
643.517	681.73
643.715	680.38
643.912	664.49
644.109	706.53
644.306	673.59
644.504	660.03
644.701	677.66
644.898	734.82
645.095	646.86
645.293	663.13
645.49	697.62
645.687	679.21
645.884	691.42
646.081	637.75
646.278	654.99
646.475	638.33
646.672	644.92
646.87	681.54
647.067	648.6
647.264	656.93
647.461	627.48
647.658	616.63
647.855	682.12
648.052	602.68
648.249	548.63
648.446	635.81
648.642	611.21
648.839	590.28
649.036	605.4
649.233	550.95
649.43	569.94
649.627	574.01
649.824	605.2
650.021	574.78
650.217	595.9
650.414	587.96
650.611	617.02
650.808	614.5
651.004	606.95
651.201	642.59
651.398	668.17
651.595	622.64
651.791	579.43
651.988	643.37
652.185	577.69
652.381	617.21
652.578	563.16
652.775	608.11
652.971	602.49
653.168	611.6
653.364	601.13
653.561	553.86
653.757	585.25
653.954	612.56
654.15	572.26
654.347	658.09
654.543	598.81
654.74	526.35
654.936	570.71
655.133	595.13
655.329	592.8
655.525	603.65
655.722	613.92
655.918	572.46
656.115	592.41
656.311	486.63
656.507	494.38
656.704	453.5
656.9	511.04
657.096	494.96
657.292	497.48
657.489	554.44
657.685	543.2
657.881	507.36
658.077	542.43
658.273	541.07
658.47	583.31
658.666	549.02
658.862	599.58
659.058	533.71
659.254	595.71
659.45	548.43
659.646	554.63
659.842	562.96
660.038	623.61
660.234	543.01
660.43	567.61
660.626	607.33
660.822	603.85
661.018	592.22
661.214	588.15
661.41	529.83
661.606	613.92
661.802	616.44
661.998	566.26
662.194	546.11
662.39	580.79
662.586	579.82
662.781	584.66
662.977	602.1
663.173	595.13
663.369	587.76
663.564	579.05
663.76	597.84
663.956	559.86
664.152	583.31
664.347	536.62
664.543	540.1
664.739	550.57
664.934	523.05
665.13	527.7
665.326	580.98
665.521	541.07
665.717	513.75
665.912	496.7
666.108	479.65
666.304	499.8
666.499	564.9
666.695	475
666.89	524.6
667.086	587.57
667.281	539.72
667.477	595.32
667.672	571.49
667.867	541.85
668.063	553.28
668.258	508.72
668.454	541.27
668.649	610.24
668.844	555.99
669.04	584.47
669.235	541.27
669.43	519.57
669.626	478.3
669.821	538.75
670.016	496.7
670.211	553.08
670.407	505.03
670.602	516.47
670.797	511.82
670.992	561.41
671.187	502.9
671.382	544.17
671.578	511.82
671.773	524.41
671.968	503.1
672.163	532.16
672.358	564.32
672.553	523.44
672.748	516.66
672.943	583.89
673.138	510.27
673.333	513.17
673.528	465.7
673.723	543.59
673.918	530.42
674.113	478.68
674.308	581.95
674.503	538.55
674.698	537.78
674.892	542.43
675.087	557.35
675.282	549.21
675.477	506
675.672	541.46
675.867	495.15
676.061	502.71
676.256	461.44
676.451	500
676.646	506.39
676.84	485.27
677.035	455.24
677.23	473.26
677.424	533.9
677.619	545.92
677.814	538.17
678.008	552.5
678.203	479.46
678.397	473.26
678.592	501.74
678.787	549.79
678.981	472.87
679.176	531.97
679.37	480.23
679.565	469.38
679.759	485.85
679.954	508.72
680.148	524.8
680.342	527.9
680.537	528.67
680.731	486.05
680.926	500.38
681.12	534.48
681.314	469.38
681.509	479.07
681.703	484.11
681.897	497.87
682.092	472.1
682.286	472.29
682.48	552.31
682.674	508.13
682.869	509.88
683.063	496.12
683.257	522.28
683.451	469.19
683.645	482.17
683.839	468.03
684.034	460.28
684.228	493.8
684.422	460.28
684.616	469.38
684.81	501.16
685.004	494.77
685.198	487.4
685.392	540.88
685.586	468.42
685.78	504.84
685.974	535.07
686.168	489.15
686.362	550.18
686.556	429.47
686.75	434.51
686.944	453.69
687.138	439.35
687.331	365.34
687.525	405.84
687.719	342.87
687.913	377.36
688.107	388.59
688.301	363.79
688.494	419.98
688.688	369.99
688.882	317.87
689.076	351.39
689.269	365.73
689.463	475.2
689.657	365.15
689.85	399.05
690.044	412.23
690.238	386.27
690.431	405.84
690.625	405.64
690.818	436.06
691.012	419.2
691.205	430.83
691.399	403.51
691.593	459.31
691.786	481.01
691.98	457.95
692.173	521.5
692.366	446.91
692.56	478.88
692.753	554.44
692.947	445.55
693.14	501.55
693.333	508.72
693.527	405.64
693.72	514.92
693.914	500.77
694.107	463.77
694.3	497.67
694.493	481.01
694.687	541.85
694.88	483.53
695.073	576.33
695.266	501.93
695.46	479.65
695.653	537.39
695.846	538.75
696.039	486.82
696.232	518.21
696.425	535.26
696.618	536.23
696.812	525.77
697.005	615.66
697.198	637.56
697.391	579.43
697.584	583.89
697.777	650.93
697.97	622.83
698.163	653.44
698.356	601.33
698.549	727.84
698.742	651.31
698.935	640.66
699.127	646.86
699.32	619.93
699.513	605.98
699.706	655.19
699.899	644.14
700.092	627.68
700.285	639.11
700.477	624
700.67	639.3
700.863	656.54
701.056	784.42
701.248	708.47
701.441	731.72
701.634	682.51
701.826	763.3
702.019	669.72
702.212	716.03
702.404	670.49
702.597	702.85
702.79	710.99
702.982	732.11
703.175	770.08
703.367	741.6
703.56	787.32
703.752	872.38
703.945	803.41
704.137	798.37
704.33	823.36
704.522	822.78
704.715	821.42
704.907	837.31
705.1	878.77
705.292	885.75
705.484	859.98
705.677	895.44
705.869	912.48
706.061	933.22
706.254	958.98
706.446	935.15
706.638	884.39
706.831	961.89
707.023	919.07
707.215	1026.02
707.407	1012.65
707.599	985.33
707.792	1051.01
707.984	1011.68
708.176	1026.21
708.368	1022.34
708.56	1066.13
708.752	1044.23
708.944	1015.36
709.136	1078.72
709.329	1040.94
709.521	1186.06
709.713	1116.89
709.905	1120.96
710.097	1160.48
710.289	1100.81
710.481	1136.84
710.672	1148.66
710.864	1155.83
711.056	1233.91
711.248	1186.25
711.44	1187.41
711.632	1197.29
711.824	1222.87
712.016	1254.84
712.207	1237.01
712.399	1234.69
712.591	1326.33
712.783	1286.22
712.975	1314.51
713.166	1275.18
713.358	1274.21
713.55	1352.48
713.741	1340.08
713.933	1347.06
714.125	1342.02
714.316	1334.85
714.508	1399.37
714.7	1359.65
714.891	1367.21
715.083	1422.82
715.274	1364.5
715.466	1383.68
715.657	1453.62
715.849	1352.87
716.04	1404.8
716.232	1324.39
716.423	1431.53
716.615	1351.32
716.806	1326.52
716.998	1316.64
717.189	1287.19
717.381	1196.13
717.572	1198.46
717.763	1226.74
717.955	1177.72
718.146	1204.66
718.337	1139.94
718.528	1144.01
718.72	1073.3
718.911	1151.76
719.102	1115.34
719.293	1176.56
719.485	1138.59
719.676	1160.29
719.867	1098.68
720.058	1127.54
720.249	1147.11
720.44	1144.79
720.632	1174.82
720.823	1198.46
721.014	1276.15
721.205	1328.46
721.396	1369.53
721.587	1459.05
721.778	1463.89
721.969	1464.28
722.16	1524.14
722.351	1535.19
722.542	1600.29
722.733	1646.01
722.924	1569.29
723.115	1615.59
723.305	1615.79
723.496	1603.97
723.687	1504.19
723.878	1548.36
724.069	1542.94
724.26	1573.74
724.45	1510.78
724.641	1501.86
724.832	1509.23
725.023	1519.11
725.213	1512.33
725.404	1526.86
725.595	1562.12
725.785	1530.54
725.976	1589.63
726.167	1543.91
726.357	1540.23
726.548	1646.79
726.739	1553.4
726.929	1683.02
727.12	1679.72
727.31	1699.29
727.501	1646.79
727.691	1660.93
727.882	1691.54
728.072	1704.14
728.263	1714.02
728.453	1761.29
728.644	1765.36
728.834	1748.7
729.024	1709.75
729.215	1742.69
729.405	1738.62
729.596	1798.49
729.786	1834.33
729.976	1865.72
730.167	1850.22
730.357	1816.9
730.547	1831.23
730.737	1883.35
730.928	1888
731.118	1924.43
731.308	1861.85
731.498	1897.69
731.688	1969.38
731.879	1992.24
732.069	2049.78
732.259	2042.42
732.449	2053.66
732.639	2164.09
732.829	2164.87
733.019	2224.73
733.209	2268.33
733.399	2263.48
733.589	2268.72
733.779	2328.39
733.969	2330.52
734.159	2402.4
734.349	2417.71
734.539	2443.48
734.729	2429.53
734.919	2478.93
735.109	2523.88
735.299	2464.21
735.488	2536.28
735.678	2529.89
735.868	2496.56
736.058	2542.48
736.248	2473.12
736.437	2485.13
736.627	2475.44
736.817	2596.92
737.007	2506.25
737.196	2582.78
737.386	2561.66
737.576	2506.44
737.765	2628.5
737.955	2589.95
738.144	2641.1
738.334	2652.33
738.524	2558.76
738.713	2635.48
738.903	2661.25
739.092	2683.72
739.282	2656.4
739.471	2655.63
739.661	2698.45
739.85	2734.29
740.04	2734.29
740.229	2770.13
740.419	2743.98
740.608	2810.63
740.797	2780.6
740.987	2816.83
741.176	2847.05
741.365	2764.71
741.555	2752.31
741.744	2820.7
741.933	2794.93
742.123	2845.31
742.312	2851.7
742.501	2940.82
742.69	2874.95
742.88	2846.28
743.069	2935.59
743.258	2907.89
743.447	2918.16
743.636	2931.14
743.825	2910.79
744.014	2932.88
744.204	2945.28
744.393	2918.16
744.582	2957.29
744.771	3028.98
744.96	2942.96
745.149	3014.25
745.338	2935.21
745.527	3012.7
745.716	2975.7
745.905	2980.54
746.094	3011.15
746.283	3051.45
746.471	3048.35
746.66	3100.47
746.849	3053.59
747.038	3070.05
747.227	2999.72
747.416	3077.03
747.604	3039.25
747.793	3016
747.982	2999.72
748.171	3033.63
748.359	3075.29
748.548	3073.93
748.737	3037.12
748.926	3034.4
749.114	2949.93
749.303	2999.53
749.491	3028.98
749.68	2959.62
749.869	3037.7
750.057	3030.53
750.246	3020.45
750.434	2968.72
750.623	2997.21
750.811	3005.92
751	3057.07
751.188	3035.95
751.377	3023.55
751.565	2990.42
751.754	2963.3
751.942	2981.32
752.131	3002.44
752.319	2959.04
752.507	2987.52
752.696	3043.9
752.884	3056.49
753.072	2988.87
753.261	3021.62
753.449	2987.91
753.637	2970.47
753.825	3056.88
754.014	2960.97
754.202	2973.96
754.39	3042.93
754.578	3035.95
754.766	2963.11
754.955	2960.59
755.143	3051.84
755.331	2967.76
755.519	2975.31
755.707	2970.86
755.895	2962.52
756.083	2953.81
756.271	2944.89
756.459	2966.59
756.647	2977.06
756.835	2923.19
757.023	2936.17
757.211	2957.1
757.399	2945.47
757.587	2930.94
757.775	2863.33
757.963	2918.93
758.151	2898.98
758.339	2876.31
758.526	2865.46
758.714	2896.26
758.902	2791.83
759.09	2716.08
759.278	2553.91
759.465	2395.43
759.653	2028.08
759.841	1844.02
760.028	1580.72
760.216	1376.51
760.404	1316.64
760.591	1057.21
760.779	875.67
760.967	809.02
761.154	639.88
761.342	702.66
761.529	674.37
761.717	721.64
761.905	705.18
762.092	783.26
762.28	711.18
762.467	725.13
762.655	661.78
762.842	674.18
763.029	683.86
763.217	719.71
763.404	701.49
763.592	761.36
763.779	664.68
763.966	724.55
764.154	780.16
764.341	832.47
764.528	815.22
764.716	903.18
764.903	912.29
765.09	1017.88
765.277	1016.72
765.465	1116.5
765.652	1250.57
765.839	1289.13
766.026	1404.02
766.213	1453.81
766.4	1522.4
766.588	1704.33
766.775	1691.54
766.962	1823.68
767.149	1841.5
767.336	1972.48
767.523	1953.88
767.71	2096.28
767.897	2138.52
768.084	2234.03
768.271	2229.38
768.458	2315.21
768.645	2390.78
768.832	2319.28
769.019	2343.11
769.206	2405.11
769.392	2470.99
769.579	2535.31
769.766	2537.06
769.953	2478.35
770.14	2548.87
770.327	2543.26
770.513	2613.97
770.7	2639.94
770.887	2563.4
771.073	2630.44
771.26	2577.94
771.447	2606.22
771.634	2593.44
771.82	2674.62
772.007	2563.4
772.193	2616.69
772.38	2647.1
772.567	2616.69
772.753	2616.1
772.94	2664.73
773.126	2674.81
773.313	2686.82
773.499	2655.63
773.686	2691.86
773.872	2590.14
774.059	2584.52
774.245	2556.24
774.432	2632.19
774.618	2477.57
774.804	2612.81
774.991	2531.82
775.177	2592.08
775.363	2588.4
775.55	2601.38
775.736	2526.59
775.922	2551.01
776.109	2579.68
776.295	2559.72
776.481	2572.9
776.667	2617.65
776.853	2540.54
777.04	2542.87
777.226	2573.67
777.412	2647.1
777.598	2501.79
777.784	2503.54
777.97	2498.31
778.156	2540.54
778.342	2482.22
778.528	2496.37
778.715	2457.81
778.901	2457.04
779.087	2493.85
779.272	2480.87
779.458	2467.11
779.644	2502.96
779.83	2412.09
780.016	2545.97
780.202	2450.45
780.388	2448.71
780.574	2383.61
780.76	2410.93
780.946	2459.56
781.131	2436.31
781.317	2454.91
781.503	2410.15
781.689	2377.99
781.874	2501.6
782.06	2387.29
782.246	2433.4
782.432	2396.59
782.617	2452.39
782.803	2474.28
782.989	2334.98
783.174	2375.08
783.36	2313.86
783.545	2354.74
783.731	2368.88
783.916	2288.28
784.102	2375.86
784.288	2285.18
784.473	2332.46
784.659	2350.09
784.844	2364.04
785.029	2266.78
785.215	2302.04
785.4	2291.38
785.586	2354.16
785.771	2280.15
785.956	2334.4
786.142	2288.09
786.327	2209.43
786.512	2283.05
786.698	2257.87
786.883	2211.56
787.068	2235.39
787.254	2251.08
787.439	2259.8
787.624	2193.15
787.809	2239.65
787.994	2169.13
788.18	2275.5
788.365	2182.69
788.55	2167.97
788.735	2199.16
788.92	2203.42
789.105	2174.36
789.29	2188.89
789.475	2101.9
789.66	2115.07
789.845	2138.71
790.03	2119.92
790.215	2128.64
790.4	2201.1
790.585	2158.86
790.77	2109.84
790.955	2052.3
791.14	2077.29
791.325	2164.67
791.51	2027.11
791.695	2086.59
791.879	2072.84
792.064	2013.74
792.249	2155.37
792.434	2116.43
792.618	2123.41
792.803	2136.19
792.988	2073.22
793.173	2095.31
793.357	2160.8
793.542	2027.31
793.727	2082.33
793.911	2092.21
794.096	2090.27
794.281	2105.58
794.465	2220.67
794.65	2098.41
794.834	2115.07
795.019	2149.75
795.203	2180.95
795.388	2132.12
795.572	2205.55
795.757	2142.78
795.941	2131.15
796.126	2161.57
796.31	2077.1
796.494	2123.6
796.679	2071.09
796.863	2067.8
797.048	2169.32
797.232	2116.24
797.416	2131.74
797.601	2099.57
797.785	2154.99
797.969	2160.6
798.153	2107.32
798.338	2156.34
798.522	2141.42
798.706	2211.75
798.89	2158.47
799.074	2259.42
799.258	2150.92
799.443	2139.29
799.627	2137.74
799.811	2192.19
799.995	2111.2
800.179	2132.12
800.363	2152.66
800.547	2151.11
800.731	2154.21
800.915	2070.32
801.099	2098.99
801.283	2144.14
801.467	2112.17
801.651	2106.36
801.835	2175.33
802.019	2139.1
802.202	2154.4
802.386	2064.31
802.57	2102.67
802.754	2123.21
802.938	2077.1
803.121	2082.14
803.305	2173.78
803.489	2081.36
803.673	2093.57
803.856	2084.85
804.04	2136.39
804.224	2129.41
804.407	2067.22
804.591	2070.32
804.775	2095.12
804.958	2117.4
805.142	2225.12
805.326	2126.5
805.509	2127.67
805.693	2158.28
805.876	2177.07
806.06	2123.21
806.243	2172.62
806.427	2205.36
806.61	2182.69
806.794	2131.74
806.977	2185.02
807.16	2136.58
807.344	2160.8
807.527	2159.83
807.71	2109.26
807.894	2094.54
808.077	2179.98
808.26	2097.64
808.444	2145.3
808.627	2131.74
808.81	2072.84
808.993	2068.96
809.177	2021.69
809.36	2078.84
809.543	2086.4
809.726	1997.28
809.909	2007.74
810.092	1994.95
810.276	1983.13
810.459	2005.22
810.642	1985.26
810.825	1928.69
811.008	1991.85
811.191	1889.75
811.374	1916.87
811.557	1941.28
811.74	1987.2
811.923	1893.23
812.106	1880.83
812.289	1801.78
812.472	1837.82
812.654	1839.57
812.837	1826.2
813.02	1756.06
813.203	1734.75
813.386	1663.64
813.569	1662.29
813.751	1616.56
813.934	1664.42
814.117	1613.85
814.3	1584.21
814.482	1522.21
814.665	1517.75
814.848	1462.92
815.03	1431.53
815.213	1452.46
815.396	1408.28
815.578	1439.67
815.761	1377.67
815.943	1463.11
816.126	1378.25
816.309	1336.6
816.491	1289.13
816.674	1260.65
816.856	1299.2
817.039	1234.49
817.221	1364.5
817.403	1326.52
817.586	1326.33
817.768	1340.67
817.951	1248.44
818.133	1249.99
818.315	1291.26
818.498	1305.02
818.68	1379.42
818.862	1301.92
819.045	1374.38
819.227	1374.18
819.409	1347.25
819.591	1344.93
819.774	1330.2
819.956	1286.22
820.138	1365.27
820.32	1355.78
820.502	1422.43
820.684	1497.8
820.866	1445.48
821.048	1519.3
821.231	1523.18
821.413	1540.03
821.595	1495.28
821.777	1488.88
821.959	1506.71
822.141	1556.11
822.323	1419.91
822.505	1339.5
822.686	1344.54
822.868	1315.67
823.05	1177.92
823.232	1176.17
823.414	1137.62
823.596	1233.33
823.778	1180.82
823.96	1235.85
824.141	1176.56
824.323	1217.83
824.505	1312.57
824.687	1344.54
824.868	1343.18
825.05	1462.34
825.232	1449.36
825.413	1506.9
825.595	1516.59
825.777	1421.07
825.958	1471.64
826.14	1459.24
826.321	1475.51
826.503	1440.06
826.685	1492.18
826.866	1504.58
827.048	1481.71
827.229	1417.58
827.411	1397.05
827.592	1353.45
827.773	1355.78
827.955	1304.05
828.136	1310.64
828.318	1301.34
828.499	1322.45
828.68	1257.55
828.862	1317.22
829.043	1328.46
829.224	1314.9
829.406	1271.89
829.587	1280.22
829.768	1230.62
829.949	1322.45
830.131	1301.14
830.312	1343.57
830.493	1280.8
830.674	1333.3
830.855	1296.88
831.036	1299.79
831.218	1350.55
831.399	1387.36
831.58	1356.55
831.761	1305.6
831.942	1356.94
832.123	1307.54
832.304	1269.17
832.485	1271.5
832.666	1284.87
832.847	1351.9
833.028	1288.94
833.209	1334.08
833.389	1280.22
833.57	1252.9
833.751	1284.67
833.932	1348.22
834.113	1315.48
834.294	1294.75
834.475	1338.54
834.655	1358.1
834.836	1367.98
835.017	1363.92
835.198	1302.89
835.378	1335.05
835.559	1411.38
835.74	1367.02
835.92	1316.84
836.101	1275.37
836.281	1336.4
836.462	1345.12
836.643	1356.36
836.823	1405.18
837.004	1388.33
837.184	1412.74
837.365	1367.4
837.545	1409.25
837.726	1345.12
837.906	1408.28
838.087	1378.45
838.267	1343.38
838.448	1351.9
838.628	1355.39
838.808	1371.28
838.989	1417.2
839.169	1310.25
839.349	1370.5
839.53	1387.75
839.71	1380.77
839.89	1345.32
840.07	1441.8
840.251	1366.63
840.431	1396.47
840.611	1372.05
840.791	1352.87
840.971	1369.15
841.151	1392.78
841.332	1329.62
841.512	1407.7
841.692	1312.57
841.872	1402.86
842.052	1353.26
842.232	1384.65
842.412	1311.02
842.592	1329.24
842.772	1364.3
842.952	1362.17
843.132	1309.47
843.312	1367.02
843.492	1307.34
843.672	1360.82
843.851	1286.8
844.031	1348.22
844.211	1298.24
844.391	1344.15
844.571	1321.68
844.751	1349
844.93	1300.95
845.11	1327.69
845.29	1339.5
845.47	1354.81
845.649	1334.08
845.829	1344.15
846.009	1302.5
846.188	1353.84
846.368	1330.2
846.547	1346.09
846.727	1368.76
846.907	1261.23
847.086	1305.79
847.266	1367.79
847.445	1330.4
847.625	1326.14
847.804	1276.34
847.984	1328.07
848.163	1280.8
848.343	1290.68
848.522	1291.65
848.701	1332.92
848.881	1279.64
849.06	1293.2
849.239	1341.25
849.419	1304.63
849.598	1193.22
849.777	1252.7
849.957	1214.73
850.136	1182.18
850.315	1187.99
850.494	1207.95
850.674	1179.27
850.853	1222.09
851.032	1207.76
851.211	1219.57
851.39	1221.51
851.569	1164.94
851.748	1198.07
851.927	1220.93
852.107	1199.62
852.286	1192.26
852.465	1177.92
852.644	1224.22
852.823	1222.29
853.002	1197.68
853.181	1203.69
853.359	1214.54
853.538	1141.88
853.717	1209.5
853.896	1137.62
854.075	1095.96
854.254	1048.5
854.433	1014.59
854.611	1039.39
854.79	995.41
854.969	1046.36
855.148	1097.71
855.327	1035.9
855.505	1091.31
855.684	1055.28
855.863	1086.28
856.041	1083.95
856.22	1106.23
856.399	1077.56
856.577	1192.06
856.756	1161.84
856.934	1253.87
857.113	1246.89
857.291	1143.43
857.47	1124.06
857.648	1172.49
857.827	1144.79
858.005	1166.87
858.184	1135.88
858.362	1223.84
858.541	1130.26
858.719	1170.56
858.898	1150.41
859.076	1123.48
859.254	1192.06
859.433	1119.41
859.611	1101.78
859.789	1074.07
859.967	1189.93
860.146	1195.16
860.324	1092.48
860.502	1091.12
860.68	1052.18
860.859	1106.23
861.037	1115.34
861.215	1152.15
861.393	1107.78
861.571	1101.97
861.749	1055.28
861.927	1116.11
862.105	1108.36
862.283	1081.43
862.461	1075.81
862.639	1057.21
862.817	1068.84
862.995	1086.28
863.173	1074.65
863.351	1073.68
863.529	1089.57
863.707	1100.61
863.885	1099.26
864.063	1005.1
864.241	1025.83
864.418	1105.07
864.596	1060.51
864.774	1003.74
864.952	1045.2
865.129	1077.94
865.307	1029.9
865.485	986.3
865.663	1053.15
865.84	979.33
866.018	1012.65
866.196	894.47
866.373	924.88
866.551	915.97
866.728	863.08
866.906	892.34
867.084	925.66
867.261	947.55
867.439	956.85
867.616	984.17
867.794	956.27
867.971	991.92
868.149	990.76
868.326	1011.3
868.503	1018.27
868.681	996.96
868.858	957.24
869.035	955.11
869.213	1022.34
869.39	950.85
869.567	1044.23
869.745	972.35
869.922	993.47
870.099	978.17
870.276	985.14
870.454	983.59
870.631	996.18
870.808	931.47
870.985	1010.91
871.162	1039.97
871.339	965.77
871.517	940.77
871.694	967.7
871.871	961.89
872.048	965.18
872.225	931.47
872.402	972.93
872.579	914.81
872.756	977.39
872.933	928.76
873.11	915.78
873.287	946
873.463	941.16
873.64	942.32
873.817	960.15
873.994	949.88
874.171	906.28
874.348	938.64
874.524	853.39
874.701	913.45
874.878	878.19
875.055	938.06
875.231	890.59
875.408	943.48
875.585	868.12
875.762	902.8
875.938	908.61
876.115	876.25
876.291	865.4
876.468	876.06
876.645	867.73
876.821	858.62
876.998	885.94
877.174	883.04
877.351	842.35
877.527	878.19
877.704	873.15
877.88	863.47
878.057	832.66
878.233	869.67
878.409	863.66
878.586	874.7
878.762	851.65
878.938	838.28
879.115	803.21
879.291	849.9
879.467	808.83
879.644	798.76
879.82	897.76
879.996	816.77
880.172	791.39
880.349	817.55
880.525	860.56
880.701	815.42
880.877	785.19
881.053	815.03
881.229	830.72
881.405	899.31
881.581	795.27
881.757	795.27
881.933	836.73
882.109	853.97
882.285	818.52
882.461	767.76
882.637	795.27
882.813	753.03
882.989	827.82
883.165	861.14
883.341	784.22
883.517	832.85
883.693	788.68
883.869	845.64
884.044	783.45
884.22	835.37
884.396	848.16
884.572	862.11
884.747	841.77
884.923	863.47
885.099	844.87
885.275	873.15
885.45	798.56
885.626	797.59
885.801	807.67
885.977	809.99
886.153	729.59
886.328	787.71
886.504	786.74
886.679	826.85
886.855	791.97
887.03	834.21
887.206	816.19
887.381	811.74
887.557	824.52
887.732	828.98
887.908	844.09
888.083	854.17
888.258	788.68
888.434	788.1
888.609	825.49
888.784	870.05
888.96	808.44
889.135	774.54
889.31	771.63
889.485	804.76
889.661	796.24
889.836	869.28
890.011	816.97
890.186	799.92
890.361	769.5
890.537	834.99
890.712	821.04
890.887	810.77
891.062	783.64
891.237	860.56
891.412	789.26
891.587	814.45
891.762	813.09
891.937	856.88
892.112	751.67
892.287	776.67
892.462	764.46
892.637	742.37
892.812	726.29
892.987	738.69
893.161	722.23
893.336	766.21
893.511	742.76
893.686	729.2
893.861	711.57
894.035	703.43
894.21	734.82
894.385	688.32
894.56	705.37
894.734	663.91
894.909	672.04
895.084	637.36
895.258	638.33
895.433	667.39
895.608	638.72
895.782	591.06
895.957	630.39
896.131	626.9
896.306	541.46
896.48	584.28
896.655	604.43
896.829	529.83
897.004	506
897.178	547.47
897.353	513.56
897.527	576.91
897.701	580.79
897.876	474.03
898.05	589.12
898.224	565.29
898.399	578.85
898.573	547.47
898.747	455.24
898.921	495.35
899.096	420.75
899.27	437.03
899.444	416.69
899.618	430.83
899.792	474.81
899.967	455.82
900.141	504.84
900.315	435.48
900.489	453.3
900.663	474.62
900.837	471.9
901.011	413
901.185	518.79
901.359	460.67
901.533	483.53
901.707	493.99
901.881	469
902.055	426.57
902.229	456.6
902.403	503.87
902.576	492.44
902.75	478.3
902.924	556.38
903.098	510.65
903.272	577.69
903.446	575.75
903.619	535.65
903.793	599
903.967	586.99
904.14	625.16
904.314	611.6
904.488	581.95
904.661	622.25
904.835	589.31
905.009	612.95
905.182	676.5
905.356	625.74
905.529	597.45
905.703	591.83
905.876	577.3
906.05	542.23
906.223	525.77
906.397	488.95
906.57	485.47
906.744	442.26
906.917	454.47
907.09	469
907.264	484.3
907.437	427.54
907.61	403.32
907.784	449.04
907.957	440.9
908.13	427.15
908.304	438.97
908.477	417.46
908.65	413.2
908.823	395.18
908.996	453.3
909.17	411.84
909.343	395.95
909.516	428.31
909.689	425.79
909.862	362.44
910.035	416.69
910.208	371.93
910.381	365.15
910.554	489.15
910.727	411.84
910.9	393.44
911.073	382.97
911.246	466.28
911.419	458.15
911.592	449.82
911.765	403.9
911.938	396.15
912.11	422.3
912.283	417.07
912.456	457.95
912.629	441.29
912.802	396.15
912.974	376
913.147	318.46
913.32	293.85
913.493	293.27
913.665	345.39
913.838	354.49
914.01	328.14
914.183	345.97
914.356	346.36
914.528	393.24
914.701	426.57
914.873	411.84
915.046	350.81
915.218	353.33
915.391	297.34
915.563	315.74
915.736	346.36
915.908	366.89
916.081	341.32
916.253	358.17
916.425	364.18
916.598	362.63
916.77	363.99
916.942	326.98
917.115	276.99
917.287	372.51
917.459	315.94
917.632	279.9
917.804	251.81
917.976	315.94
918.148	326.59
918.32	312.26
918.493	365.73
918.665	387.04
918.837	355.46
919.009	349.46
919.181	394.6
919.353	367.09
919.525	370.77
919.697	344.22
919.869	371.54
920.041	452.34
920.213	471.9
920.385	416.1
920.557	380.07
920.729	402.54
920.901	418.04
921.073	378.9
921.244	350.81
921.416	425.21
921.588	363.21
921.76	347.52
921.932	431.02
922.103	369.61
922.275	357.79
922.447	361.08
922.619	336.86
922.79	358.37
922.962	351.2
923.134	361.47
923.305	330.08
923.477	313.03
923.648	311.29
923.82	333.37
923.991	282.23
924.163	295.21
924.335	330.27
924.506	294.04
924.677	353.72
924.849	315.74
925.02	334.15
925.192	344.61
925.363	323.69
925.535	320.97
925.706	287.07
925.877	343.84
926.049	295.01
926.22	287.26
926.391	313.22
926.562	353.14
926.734	279.13
926.905	357.4
927.076	270.02
927.247	287.26
927.419	272.93
927.59	243.48
927.761	265.18
927.932	250.84
928.103	281.26
928.274	215.96
928.445	211.51
928.616	228.36
928.787	234.95
928.958	240.76
929.129	245.03
929.3	214.99
929.471	177.6
929.642	138.27
929.813	125.48
929.984	242.7
930.155	139.05
930.326	173.53
930.496	125.87
930.667	99.52
930.838	126.84
931.009	105.33
931.18	124.32
931.35	115.6
931.521	111.53
931.692	85.18
931.863	46.63
932.033	96.03
932.204	128
932.374	109.02
932.545	47.21
932.716	85.77
932.886	115.41
933.057	7.1
933.227	17.37
933.398	129.55
933.568	19.7
933.739	7.69
933.909	17.76
934.08	72.01
934.25	-30.87
934.421	28.22
934.591	36.55
934.761	25.51
934.932	6.52
935.102	46.43
935.272	18.54
935.443	22.02
935.613	25.9
935.783	35.2
935.953	4
936.123	159.58
936.294	10.01
936.464	9.24
936.634	2.84
936.804	-6.07
936.974	-13.82
937.144	59.03
937.314	52.05
937.484	30.16
937.655	2.45
937.825	65.03
937.995	11.37
938.165	58.45
938.334	15.63
938.504	38.88
938.674	37.91
938.844	42.75
939.014	84.8
939.184	57.28
939.354	114.25
939.524	82.47
939.694	48.95
939.863	56.9
940.033	139.82
940.203	121.03
940.373	87.7
940.542	105.14
940.712	66.78
940.882	91.38
941.051	109.98
941.221	88.87
941.391	124.32
941.56	49.34
941.73	13.69
941.899	169.46
942.069	73.75
942.238	115.8
942.408	66.58
942.577	112.31
942.747	62.9
942.916	18.15
943.086	16.4
943.255	79.76
943.425	70.65
943.594	39.85
943.763	-2
943.933	26.29
944.102	11.37
944.271	33.07
944.441	67.75
944.61	39.27
944.779	51.28
944.948	136.33
945.117	29.77
945.287	33.84
945.456	-6.65
945.625	2.45
945.794	34.42
945.963	25.7
946.132	62.9
946.301	2.84
946.47	62.9
946.639	-4.71
946.808	18.34
946.977	60.19
947.146	62.9
947.315	19.12
947.484	70.85
947.653	39.65
947.822	3.23
947.991	13.69
948.16	134.4
948.329	94.48
948.498	35.97
948.666	49.92
948.835	84.99
949.004	-4.33
949.173	15.44
949.341	43.14
949.51	64.45
949.679	84.99
949.847	67.36
950.016	135.36
950.185	117.73
950.353	-10.72
950.522	25.51
950.69	88.28
950.859	25.7
951.028	89.06
951.196	54.77
951.365	18.15
951.533	54.18
951.701	66.39
951.87	54.77
952.038	10.59
952.207	42.37
952.375	82.86
952.543	31.13
952.712	62.71
952.88	16.6
953.048	107.27
953.217	21.44
953.385	53.22
953.553	103.59
953.721	15.05
953.89	55.15
954.058	28.8
954.226	27.25
954.394	74.33
954.562	4.2
954.73	40.23
954.898	41.2
955.067	77.24
955.235	37.13
955.403	80.53
955.571	112.5
955.739	70.27
955.907	32.48
956.075	19.12
956.243	21.25
956.41	81.89
956.578	1.87
956.746	19.89
956.914	37.33
957.082	69.1
957.25	61.74
957.418	28.8
957.585	43.33
957.753	93.71
957.921	23.38
958.089	47.79
958.256	47.4
958.424	59.03
958.592	59.03
958.759	14.85
958.927	91.77
959.095	35.78
959.262	64.65
959.43	53.99
959.597	10.4
959.765	56.51
959.932	18.73
960.1	83.83
960.267	41.59
960.435	50.12
960.602	64.65
960.77	37.33
960.937	13.5
961.104	65.03
961.272	40.04
961.439	30.35
961.606	67.75
961.774	87.7
961.941	39.27
962.108	79.76
962.275	87.9
962.443	75.88
962.61	76.47
962.777	122
962.944	66.39
963.111	61.35
963.278	61.74
963.446	63.87
963.613	43.33
963.78	82.28
963.947	98.94
964.114	60.38
964.281	134.98
964.448	79.76
964.615	41.59
964.782	72.78
964.949	106.11
965.116	97
965.282	122.38
965.449	49.53
965.616	9.62
965.783	113.08
965.95	79.57
966.117	44.69
966.283	50.12
966.45	77.05
966.617	59.03
966.784	100.3
966.95	100.49
967.117	107.47
967.284	37.33
967.45	49.15
967.617	127.23
967.784	100.68
967.95	143.31
968.117	76.08
968.283	112.12
968.45	170.63
968.616	84.02
968.783	107.66
968.949	102.62
969.116	122
969.282	90.03
969.449	78.6
969.615	88.87
969.781	46.24
969.948	51.28
970.114	43.53
970.28	108.05
970.447	66.39
970.613	142.34
970.779	79.37
970.945	110.95
971.112	78.4
971.278	87.9
971.444	68.33
971.61	108.43
971.776	66.2
971.942	100.49
972.108	78.79
972.275	55.54
972.441	124.9
972.607	145.05
972.773	64.26
972.939	103.59
973.105	62.71
973.271	35
973.437	30.55
973.602	59.03
973.768	88.28
973.934	93.9
974.1	112.7
974.266	-3.94
974.432	83.63
974.598	51.47
974.763	115.02
974.929	62.71
975.095	118.9
975.261	38.49
975.426	50.31
975.592	73.56
975.758	133.04
975.923	41.59
976.089	43.72
976.255	110.37
976.42	82.28
976.586	121.22
976.751	57.48
976.917	155.9
977.082	76.08
977.248	24.54
977.413	12.92
977.579	47.02
977.744	70.27
977.91	21.64
978.075	35.78
978.24	106.5
978.406	62.71
978.571	64.26
978.736	59.22
978.902	91.58
979.067	36.75
979.232	20.86
979.397	56.9
979.563	121.41
979.728	61.55
979.893	56.32
980.058	47.98
980.223	93.32
980.388	79.18
980.554	68.13
980.719	44.69
980.884	70.46
981.049	111.92
981.214	46.82
981.379	94.48
981.544	38.1
981.709	72.78
981.874	49.34
982.039	77.43
982.204	83.44
982.368	73.95
982.533	56.7
982.698	99.13
982.863	87.9
983.028	56.7
983.193	110.18
983.357	68.13
983.522	47.02
983.687	67.17
983.852	67.75
984.016	42.17
984.181	66.58
984.346	91.97
984.51	73.75
984.675	49.53
984.839	91.19
985.004	70.46
985.168	82.67
985.333	92.16
985.498	41.2
985.662	93.9
985.827	58.25
985.991	58.25
986.155	53.22
986.32	91.58
986.484	135.17
986.649	59.61
986.813	36.17
986.977	63.1
987.142	77.05
987.306	21.64
987.47	48.76
987.634	46.24
987.799	85.38
987.963	75.3
988.127	90.8
988.291	131.68
988.455	47.6
988.62	45.08
988.784	83.83
988.948	85.77
989.112	46.63
989.276	67.75
989.44	68.72
989.604	36.36
989.768	61.55
989.932	146.8
990.096	36.55
990.26	38.88
990.424	24.35
990.588	68.52
990.752	108.82
990.915	67.17
991.079	35.2
991.243	29.19
991.407	82.67
991.571	56.32
991.734	79.76
991.898	84.22
992.062	145.05
992.226	52.63
992.389	41.2
992.553	5.94
992.717	31.71
992.88	58.64
993.044	54.57
993.207	48.95
993.371	98.75
993.535	56.7
993.698	82.67
993.862	72.2
994.025	116.18
994.189	65.62
994.352	78.79
994.515	50.89
994.679	105.33
994.842	39.65
995.006	78.98
995.169	25.7
995.332	60.97
995.496	59.22
995.659	23.57
995.822	37.91
995.985	31.71
996.149	104.17
996.312	73.95
996.475	117.35
996.638	49.73
996.801	90.03
996.964	131.88
997.128	22.6
997.291	34.03
997.454	71.04
997.617	10.98
997.78	69.68
997.943	38.3
998.106	76.85
998.269	14.47
998.432	46.43
998.595	77.24
998.758	16.79
998.92	8.07
999.083	-11.69
999.246	41.2
999.409	-16.53
999.572	-2.39
999.735	14.27
999.897	59.61
1000.06	36.75
1000.223	26.09
1000.386	55.93
1000.548	84.6
1000.711	66.2
1000.874	51.67
1001.036	-7.43
1001.199	57.28
1001.361	13.11
1001.524	50.12
1001.687	57.67
1001.849	11.37
1002.012	48.37
1002.174	82.86
1002.337	68.52
1002.499	48.37
1002.661	75.69
1002.824	6.14
1002.986	19.5
1003.149	46.43
1003.311	22.6
1003.473	94.29
1003.636	6.91
1003.798	55.15
1003.96	84.22
1004.123	25.32
1004.285	41.98
1004.447	29.38
1004.609	52.05
1004.771	91
1004.933	-15.76
1005.096	27.25
1005.258	0.71
1005.42	0.13
1005.582	68.72
1005.744	51.86
1005.906	-8.4
1006.068	48.76
1006.23	5.17
1006.392	-30.68
1006.554	11.75
1006.716	66.39
1006.878	57.09
1007.04	-19.83
1007.202	34.81
1007.363	42.17
1007.525	48.76
1007.687	52.83
1007.849	70.07
1008.011	-26.22
1008.172	10.79
1008.334	-6.46
1008.496	23.38
1008.658	-6.26
1008.819	-17.11
1008.981	10.01
1009.143	1.1
1009.304	1.87
1009.466	49.15
1009.627	77.63
1009.789	122.96
1009.95	33.07
1010.112	13.69
1010.273	69.68
1010.435	-4.91
1010.596	14.85
1010.758	12.14
1010.919	5.94
1011.081	2.26
1011.242	29.58
1011.403	55.35
1011.565	48.95
1011.726	43.92
1011.887	5.55
1012.049	24.35
1012.21	67.75
1012.371	64.45
1012.532	-39.4
1012.693	26.29
1012.855	30.16
1013.016	14.27
1013.177	66.39
1013.338	-4.52
1013.499	63.29
1013.66	50.7
1013.821	49.34
1013.982	44.11
1014.143	25.9
1014.304	-9.17
1014.465	44.11
1014.626	61.74
1014.787	2.26
1014.948	98.94
1015.109	-48.31
1015.27	70.46
1015.431	26.87
1015.592	1.68
1015.752	68.33
1015.913	9.62
1016.074	55.54
1016.235	21.64
1016.395	21.44
1016.556	7.1
1016.717	20.28
1016.877	76.47
1017.038	2.07
1017.199	3.23
1017.359	38.68
1017.52	45.85
1017.681	7.69
1017.841	46.82
1018.002	-5.49
1018.162	4
1018.323	72.59
1018.483	23.38
1018.644	18.54
1018.804	-20.99
1018.964	-19.44
1019.125	23.57
1019.285	18.73
1019.446	-12.66
1019.606	-11.69
1019.766	-27
1019.926	47.79
1020.087	9.24
1020.247	-25.83
1020.407	20.86
1020.567	44.88
1020.728	1.49
1020.888	-32.03
1021.048	-4.71
1021.208	-18.86
1021.368	-8.2
1021.528	68.33
1021.688	39.65
1021.848	25.32
1022.008	26.09
1022.168	38.49
1022.328	24.54
1022.488	15.63
1022.648	-3.94
1022.808	19.89
1022.968	49.34
1023.128	-22.54
1023.288	-7.43
1023.448	11.17
1023.608	39.46
1023.767	45.66
1023.927	-23.9
1024.087	-17.89
1024.247	-22.35
1024.406	-8.01
1024.566	-40.36
1024.726	-23.12
1024.885	4.78
1025.045	21.83
1025.205	-16.34
1025.364	-16.92
1025.524	33.65
1025.683	-5.88
1025.843	36.75
1026.003	3.81
1026.162	62.9
1026.321	32.87
1026.481	16.6
1026.64	5.75
1026.8	18.34
1026.959	18.34
1027.119	8.07
1027.278	-21.76
1027.437	-20.41
1027.597	6.52
1027.756	28.8
1027.915	1.1
1028.074	32.87
1028.234	-0.84
1028.393	5.75
1028.552	11.37
1028.711	-70.01
1028.87	42.95
1029.03	-19.25
1029.189	3.42
1029.348	-54.51
1029.507	-20.6
1029.666	17.95
1029.825	-41.14
1029.984	-14.4
1030.143	13.69
1030.302	2.84
1030.461	-58.77
1030.62	3.81
1030.779	16.79
1030.938	-1.61
1031.097	-42.3
1031.255	35.78
1031.414	50.12
1031.573	58.45
1031.732	-35.13
1031.891	-17.5
1032.049	39.65
1032.208	50.5
1032.367	9.62
1032.525	-22.54
1032.684	-8.01
1032.843	0.52
1033.001	-40.56
1033.16	131.88
1033.319	49.34
1033.477	16.6
1033.636	-5.1
1033.794	-45.6
1033.953	14.08
1034.111	38.49
1034.27	-26.03
1034.428	-32.81
1034.587	-36.88
1034.745	18.15
1034.903	6.72
1035.062	8.85
1035.22	-38.43
1035.378	33.45
1035.537	-25.83
1035.695	23.57
1035.853	-3.94
1036.011	15.63
1036.17	-4.71
1036.328	-47.15
1036.486	18.34
1036.644	3.04
1036.802	-56.64
1036.96	-12.27
1037.119	5.17
1037.277	-10.14
1037.435	-37.85
1037.593	-54.51
1037.751	1.29
1037.909	14.66
1038.067	14.66
