Data from oakcork_FLMT105791__211__17-32-42-056.txt Node

Date: Mon Mar 20 17:32:42 GMT 2023
User: antho
Spectrometer: FLMT10579
Trigger mode: 0
Integration Time (sec): 1.000000E-1
Scans to average: 10
Electric dark correction enabled: true
Nonlinearity correction enabled: false
Boxcar width: 0
XAxis mode: Wavelengths
Number of Pixels in Spectrum: 3648
>>>>>Begin Spectral Data<<<<<
345.248	-120.24
345.464	-120.24
345.681	-120.24
345.898	-163.64
346.114	-133.02
346.331	-35.76
346.548	3.18
346.764	15.58
346.981	-8.83
347.197	-28.4
347.414	7.64
347.631	-6.7
347.847	62.27
348.064	2.99
348.28	14.03
348.497	-44.09
348.713	18.1
348.93	26.24
349.146	20.62
349.363	25.46
349.579	6.28
349.796	8.99
350.012	6.09
350.229	23.33
350.445	3.96
350.661	15.97
350.878	-3.41
351.094	24.69
351.311	33.41
351.527	16.36
351.743	-7.28
351.96	47.36
352.176	37.67
352.392	35.34
352.609	38.25
352.825	19.65
353.041	3.96
353.257	8.99
353.474	-9.03
353.69	17.52
353.906	21.97
354.122	-11.35
354.339	53.55
354.555	7.25
354.771	4.15
354.987	73.9
355.203	41.74
355.42	4.34
355.636	-8.25
355.852	-8.44
356.068	-1.28
356.284	-13.29
356.5	70.99
356.716	37.09
356.932	7.25
357.148	34.37
357.364	-13.09
357.58	55.88
357.796	76.61
358.012	42.32
358.228	18.49
358.444	-42.74
358.66	48.52
358.876	42.12
359.092	32.05
359.308	22.36
359.524	54.52
359.74	6.28
359.956	-6.31
360.172	24.88
360.388	41.35
360.604	8.61
360.819	61.3
361.035	16.16
361.251	42.51
361.467	-19.49
361.683	54.91
361.898	32.63
362.114	41.93
362.33	26.43
362.546	45.22
362.762	10.35
362.977	8.22
363.193	-22.98
363.409	57.62
363.624	3.76
363.84	-6.7
364.056	8.22
364.271	33.21
364.487	36.89
364.703	13.06
364.918	-2.24
365.134	30.69
365.35	1.24
365.565	117.3
365.781	41.74
365.996	50.07
366.212	93.08
366.427	34.37
366.643	-6.51
366.858	31.86
367.074	-3.41
367.289	56.27
367.505	100.83
367.72	-43.9
367.936	11.51
368.151	41.35
368.367	32.63
368.582	20.42
368.798	13.26
369.013	75.84
369.228	41.16
369.444	33.41
369.659	93.85
369.874	47.55
370.09	94.63
370.305	-33.24
370.52	-11.16
370.736	81.26
370.951	21.01
371.166	80.1
371.381	74.67
371.597	43.67
371.812	3.57
372.027	15.77
372.242	36.7
372.458	96.95
372.673	25.66
372.888	5.12
373.103	26.04
373.318	113.81
373.533	36.12
373.749	56.27
373.964	-16.58
374.179	56.46
374.394	-10.77
374.609	95.79
374.824	1.82
375.039	65.76
375.254	23.72
375.469	71.38
375.684	71.57
375.899	64.4
376.114	23.52
376.329	41.54
376.544	73.7
376.759	58.79
376.974	33.6
377.189	29.34
377.404	32.63
377.619	42.32
377.834	-3.21
378.049	29.14
378.264	14.22
378.478	52.97
378.693	-6.51
378.908	32.24
379.123	40.57
379.338	59.56
379.553	63.05
379.767	50.84
379.982	47.94
380.197	66.34
380.412	35.54
380.626	44.45
380.841	104.32
381.056	35.73
381.271	89.79
381.485	27.4
381.7	26.43
381.915	44.26
382.129	0.47
382.344	54.33
382.559	12.29
382.773	110.32
382.988	2.41
383.202	39.8
383.417	-18.33
383.632	141.52
383.846	31.27
384.061	36.89
384.275	19.46
384.49	42.32
384.704	64.6
384.919	58.2
385.133	54.33
385.348	66.15
385.562	9.19
385.777	90.75
385.991	44.45
386.206	29.14
386.42	27.01
386.634	87.65
386.849	49.68
387.063	64.21
387.277	25.66
387.492	41.93
387.706	29.34
387.92	-12.51
388.135	75.45
388.349	39.8
388.563	18.1
388.778	53.55
388.992	64.21
389.206	65.57
389.42	117.1
389.635	61.89
389.849	74.29
390.063	88.62
390.277	33.79
390.491	106.84
390.706	75.06
390.92	78.35
391.134	37.67
391.348	101.6
391.562	-12.13
391.776	30.11
391.99	22.36
392.205	63.05
392.419	32.44
392.633	42.71
392.847	97.34
393.061	18.87
393.275	101.41
393.489	24.88
393.703	53.75
393.917	61.69
394.131	28.56
394.345	76.22
394.559	82.62
394.773	45.81
394.986	95.79
395.2	77
395.414	89.4
395.628	47.94
395.842	41.16
396.056	24.11
396.27	10.16
396.484	84.55
396.697	76.03
396.911	112.26
397.125	49.87
397.339	83.78
397.553	82.62
397.766	118.85
397.98	73.32
398.194	85.52
398.408	90.95
398.621	102.77
398.835	90.37
399.049	61.89
399.262	97.54
399.476	128.34
399.69	89.98
399.903	154.69
400.117	90.75
400.331	110.52
400.544	64.02
400.758	166.32
400.971	97.34
401.185	93.27
401.398	61.11
401.612	114.39
401.826	131.83
402.039	98.31
402.253	81.45
402.466	112.26
402.68	71.19
402.893	88.43
403.106	111.49
403.32	104.9
403.533	79.13
403.747	120.01
403.96	120.2
404.174	135.51
404.387	66.34
404.6	99.28
404.814	126.99
405.027	108
405.24	82.04
405.454	96.37
405.667	134.35
405.88	43.87
406.094	92.69
406.307	143.26
406.52	120.98
406.733	70.02
406.947	51.04
407.16	146.94
407.373	138.61
407.586	76.22
407.799	64.99
408.012	149.46
408.226	111.87
408.439	137.84
408.652	73.32
408.865	100.83
409.078	139.19
409.291	107.61
409.504	89.79
409.717	114
409.93	135.7
410.143	80.87
410.357	86.69
410.57	66.34
410.783	72.54
410.996	115.36
411.209	95.21
411.421	163.6
411.634	113.42
411.847	78.16
412.06	130.86
412.273	126.99
412.486	131.05
412.699	200.61
412.912	109.16
413.125	127.76
413.338	112.07
413.55	142.29
413.763	139.58
413.976	138.8
414.189	95.02
414.402	118.85
414.615	171.74
414.827	82.42
415.04	155.47
415.253	152.95
415.466	162.05
415.678	211.85
415.891	134.54
416.104	144.42
416.316	145.58
416.529	121.95
416.742	147.33
416.954	157.6
417.167	131.05
417.38	129.31
417.592	167.28
417.805	100.83
418.017	109.35
418.23	164.38
418.442	91.14
418.655	109.55
418.868	139.38
419.08	174.07
419.293	158.76
419.505	167.48
419.718	171.74
419.93	184.14
420.142	132.6
420.355	165.93
420.567	196.15
420.78	143.45
420.992	147.13
421.205	187.63
421.417	108.97
421.629	154.5
421.842	114.39
422.054	101.99
422.266	165.73
422.479	182.78
422.691	132.6
422.903	161.28
423.115	123.89
423.328	126.4
423.54	159.34
423.752	131.25
423.964	148.3
424.177	166.7
424.389	118.46
424.601	264.74
424.813	166.51
425.025	175.81
425.238	178.13
425.45	166.9
425.662	169.03
425.874	440.47
426.086	164.96
426.298	161.86
426.51	178.13
426.722	194.8
426.934	135.51
427.146	194.99
427.358	124.66
427.57	181.82
427.782	160.31
427.994	152.95
428.206	135.9
428.418	125.05
428.63	170.19
428.842	175.81
429.054	181.23
429.266	206.23
429.478	178.33
429.69	172.32
429.902	146.55
430.114	181.62
430.325	157.79
430.537	145.2
430.749	142.1
430.961	88.04
431.173	116.52
431.384	161.47
431.596	97.54
431.808	160.89
432.02	158.37
432.231	191.5
432.443	194.22
432.655	183.95
432.867	136.48
433.078	187.82
433.29	236.45
433.502	222.7
433.713	232.77
433.925	170
434.136	199.64
434.348	155.66
434.56	138.61
434.771	273.65
434.983	148.88
435.194	167.48
435.406	194.8
435.617	237.81
435.829	264.93
436.04	243.62
436.252	233.35
436.463	241.1
436.675	231.22
436.886	226.38
437.098	235.87
437.309	266.87
437.521	230.06
437.732	235.29
437.943	240.71
438.155	189.95
438.366	167.67
438.578	280.24
438.789	222.12
439	223.86
439.211	220.37
439.423	212.23
439.634	213.2
439.845	233.74
440.057	243.81
440.268	263.58
440.479	209.72
440.69	237.03
440.902	215.53
441.113	181.04
441.324	242.07
441.535	254.08
441.746	272.88
441.957	228.51
442.168	241.88
442.38	261.25
442.591	253.5
442.802	230.64
443.013	258.54
443.224	263.77
443.435	238.2
443.646	235.87
443.857	243.43
444.068	231.41
444.279	224.44
444.49	334.88
444.701	261.25
444.912	333.91
445.123	329.64
445.334	292.64
445.545	275.4
445.756	245.56
445.967	227.35
446.178	294.19
446.388	287.8
446.599	291.28
446.81	289.15
447.021	263.38
447.232	298.45
447.443	326.54
447.653	267.26
447.864	298.06
448.075	291.86
448.286	315.11
448.496	309.3
448.707	323.25
448.918	273.65
449.129	382.73
449.339	283.92
449.55	312.79
449.761	262.8
449.971	312.98
450.182	306.4
450.393	324.61
450.603	267.06
450.814	376.34
451.024	318.41
451.235	360.64
451.446	386.61
451.656	363.74
451.867	291.09
452.077	331.78
452.288	383.12
452.498	364.52
452.709	318.99
452.919	332.16
453.13	275.01
453.34	332.36
453.55	247.5
453.761	353.48
453.971	333.71
454.182	353.67
454.392	342.24
454.602	358.32
454.813	361.23
455.023	349.6
455.233	299.61
455.444	339.91
455.654	250.98
455.864	333.71
456.075	331.78
456.285	298.26
456.495	310.46
456.705	340.3
456.916	384.28
457.126	373.63
457.336	347.47
457.546	271.71
457.756	331.19
457.967	397.65
458.177	301.16
458.387	312.01
458.597	317.05
458.807	324.61
459.017	299.03
459.227	313.56
459.437	292.64
459.647	335.84
459.857	354.25
460.068	291.67
460.278	360.84
460.488	359.09
460.698	395.91
460.908	360.64
461.117	298.26
461.327	334.68
461.537	373.04
461.747	352.12
461.957	377.89
462.167	416.64
462.377	394.16
462.587	364.71
462.797	406.76
463.007	403.46
463.216	374.21
463.426	406.17
463.636	403.07
463.846	340.49
464.056	322.48
464.265	412.96
464.475	365.29
464.685	354.64
464.895	388.35
465.104	353.86
465.314	390.87
465.524	384.09
465.733	361.42
465.943	437.37
466.153	439.69
466.362	424.19
466.572	411.99
466.782	365.49
466.991	365.1
467.201	440.47
467.41	358.51
467.62	421.09
467.829	379.44
468.039	408.11
468.249	381.57
468.458	418.38
468.668	440.47
468.877	412.37
469.086	462.94
469.296	419.54
469.505	413.54
469.715	488.32
469.924	458.49
470.134	445.12
470.343	448.02
470.552	407.92
470.762	392.61
470.971	402.11
471.18	397.26
471.39	423.61
471.599	387.58
471.808	437.17
472.018	394.36
472.227	479.41
472.436	457.71
472.645	429.23
472.855	426.13
473.064	504.99
473.273	442.99
473.482	467.01
473.691	490.07
473.901	488.9
474.11	460.62
474.319	557.3
474.528	458.1
474.737	550.71
474.946	500.53
475.155	492.97
475.364	533.66
475.573	508.09
475.783	502.66
475.992	506.73
476.201	529.01
476.41	510.99
476.619	469.34
476.828	500.14
477.037	492.78
477.245	488.52
477.454	530.56
477.663	517.19
477.872	498.4
478.081	572.8
478.29	493.36
478.499	628.6
478.708	536.37
478.917	606.51
479.125	553.81
479.334	586.75
479.543	536.37
479.752	536.95
479.961	570.67
480.169	594.5
480.378	559.82
480.587	678.58
480.796	583.07
481.004	600.31
481.213	617.36
481.422	596.82
481.63	602.83
481.839	623.95
482.048	645.26
482.256	622.59
482.465	657.66
482.674	634.99
482.882	632.86
483.091	692.73
483.299	650.88
483.508	647.78
483.716	623.37
483.925	669.48
484.134	610.19
484.342	625.11
484.551	658.82
484.759	662.5
484.967	692.34
485.176	708.03
485.384	672.38
485.593	702.22
485.801	686.14
486.01	658.82
486.218	618.91
486.426	548.19
486.635	620.27
486.843	605.15
487.051	635.38
487.26	628.6
487.468	635.96
487.676	673.16
487.885	650.1
488.093	677.03
488.301	681.1
488.509	679.55
488.717	711.33
488.926	701.45
489.134	671.22
489.342	688.46
489.55	673.16
489.758	704.74
489.967	663.08
490.175	790.57
490.383	729.35
490.591	817.89
490.799	694.28
491.007	793.48
491.215	791.34
491.423	743.68
491.631	746.2
491.839	734.38
492.047	770.42
492.255	731.67
492.463	706.1
492.671	747.36
492.879	796.77
493.087	743.49
493.295	775.84
493.503	777.39
493.711	805.29
493.919	805.88
494.127	851.6
494.334	821.96
494.542	767.32
494.75	799.29
494.958	776.23
495.166	853.34
495.374	818.86
495.581	821.18
495.789	838.62
495.997	874.66
496.205	821.38
496.412	802
496.62	802.78
496.828	844.43
497.035	817.89
497.243	837.84
497.451	831.45
497.658	861.87
497.866	848.31
498.074	891.51
498.281	823.12
498.489	897.13
498.696	860.71
498.904	826.41
499.112	812.27
499.319	911.27
499.527	853.92
499.734	892.29
499.942	826.99
500.149	795.41
500.357	838.81
500.564	817.11
500.771	887.83
500.979	843.27
501.186	825.44
501.394	829.71
501.601	845.4
501.808	856.44
502.016	864.97
502.223	837.84
502.43	850.44
502.638	841.52
502.845	841.14
503.052	950.41
503.26	864.97
503.467	943.63
503.674	891.51
503.881	899.46
504.089	922.51
504.296	902.56
504.503	885.12
504.71	895.39
504.917	841.14
505.125	909.53
505.332	880.08
505.539	904.88
505.746	985.09
505.953	923.67
506.16	930.07
506.367	969.4
506.574	996.91
506.781	1015.7
506.988	890.54
507.195	957.19
507.402	937.82
507.609	980.64
507.816	900.62
508.023	925.8
508.23	936.07
508.437	875.62
508.644	986.25
508.851	976.57
509.058	1010.09
509.265	957.77
509.472	975.79
509.679	1093.4
509.885	985.87
510.092	978.12
510.299	979.47
510.506	994.39
510.713	1016.67
510.92	1007.18
511.126	1013.18
511.333	1041.08
511.54	1037.79
511.746	1050.58
511.953	1053.87
512.16	1076.15
512.367	1039.15
512.573	1068.98
512.78	1043.8
512.987	1027.33
513.193	1044.57
513.4	957.58
513.606	1042.63
513.813	1039.73
514.02	1014.35
514.226	1090.3
514.433	1086.23
514.639	1012.02
514.846	1046.12
515.052	1028.68
515.259	1057.55
515.465	1040.12
515.672	1076.15
515.878	1136.02
516.085	1046.12
516.291	1100.95
516.497	1044.96
516.704	1060.85
516.91	1003.3
517.117	1018.61
517.323	940.92
517.529	962.62
517.736	982.19
517.942	997.88
518.148	1000.2
518.354	1006.79
518.561	1036.63
518.767	1029.85
518.973	1076.73
519.179	1118.97
519.386	1078.28
519.592	1074.22
519.798	1067.63
520.004	1169.15
520.21	1116.45
520.417	1143.96
520.623	1171.86
520.829	1226.31
521.035	1195.31
521.241	1170.12
521.447	1208.87
521.653	1307.29
521.859	1195.11
522.065	1231.34
522.271	1310.01
522.477	1254.59
522.683	1288.69
522.889	1229.21
523.095	1254.21
523.301	1228.83
523.507	1215.65
523.713	1227.66
523.919	1199.18
524.125	1318.72
524.331	1278.04
524.537	1330.35
524.742	1321.63
524.948	1333.26
525.154	1356.89
525.36	1409.79
525.566	1338.87
525.772	1387.31
525.977	1287.92
526.183	1360.38
526.389	1369.49
526.595	1318.92
526.8	1296.83
527.006	1260.6
527.212	1199.18
527.417	1195.89
527.623	1223.59
527.829	1276.49
528.034	1319.31
528.24	1324.54
528.446	1317.17
528.651	1404.55
528.857	1382.85
529.062	1417.54
529.268	1387.7
529.473	1416.37
529.679	1406.3
529.884	1486.9
530.09	1461.71
530.295	1486.12
530.501	1461.32
530.706	1468.68
530.912	1425.09
531.117	1519.25
531.323	1480.5
531.528	1484.38
531.733	1535.92
531.939	1445.05
532.144	1483.41
532.35	1503.17
532.555	1532.23
532.76	1514.41
532.966	1516.54
533.171	1516.54
533.376	1455.9
533.581	1443.3
533.787	1476.43
533.992	1514.8
534.197	1538.63
534.402	1489.03
534.607	1520.42
534.813	1600.24
535.018	1524.68
535.223	1519.25
535.428	1569.43
535.633	1585.32
535.838	1579.12
536.043	1568.08
536.249	1657.2
536.454	1536.5
536.659	1603.92
536.864	1565.17
537.069	1555.68
537.274	1613.8
537.479	1580.28
537.684	1640.73
537.889	1549.86
538.094	1670.38
538.299	1578.73
538.504	1591.33
538.708	1641.31
538.913	1655.84
539.118	1641.12
539.323	1633.56
539.528	1597.53
539.733	1598.3
539.938	1610.51
540.142	1637.63
540.347	1617.48
540.552	1557.03
540.757	1557.42
540.962	1561.1
541.166	1530.68
541.371	1602.76
541.576	1605.08
541.781	1527.2
541.985	1628.91
542.19	1593.46
542.395	1643.25
542.599	1724.04
542.804	1639.76
543.008	1706.41
543.213	1605.66
543.418	1593.65
543.622	1683.74
543.827	1614.96
544.031	1696.92
544.236	1695.76
544.44	1664.76
544.645	1748.46
544.849	1631.82
545.054	1685.49
545.258	1738.57
545.463	1738.38
545.667	1692.85
545.872	1670.38
546.076	1722.88
546.281	1727.72
546.485	1682.97
546.689	1718.81
546.894	1756.59
547.098	1716.68
547.302	1677.93
547.507	1731.21
547.711	1728.31
547.915	1738.19
548.119	1663.98
548.324	1726.56
548.528	1733.73
548.732	1674.64
548.936	1747.68
549.141	1760.27
549.345	1738.19
549.549	1756.98
549.753	1712.81
549.957	1786.24
550.161	1793.99
550.366	1747.49
550.57	1705.64
550.774	1735.86
550.978	1759.69
551.182	1758.53
551.386	1708.93
551.59	1718.42
551.794	1711.26
551.998	1749.23
552.202	1723.46
552.406	1710.87
552.61	1750.39
552.814	1767.06
553.018	1797.67
553.222	1765.89
553.426	1709.71
553.63	1803.87
553.833	1768.8
554.037	1677.74
554.241	1770.93
554.445	1787.79
554.649	1741.09
554.853	1757.76
555.056	1784.3
555.26	1809.1
555.464	1798.83
555.668	1757.37
555.871	1774.42
556.075	1805.03
556.279	1712.22
556.483	1714.55
556.686	1728.11
556.89	1733.15
557.094	1734.7
557.297	1661.66
557.501	1781.97
557.704	1668.83
557.908	1730.44
558.112	1683.94
558.315	1756.59
558.519	1713.19
558.722	1699.44
558.926	1686.65
559.129	1632.98
559.333	1624.65
559.536	1643.25
559.74	1626.78
559.943	1632.79
560.147	1605.86
560.35	1636.86
560.553	1623.88
560.757	1619.42
560.96	1701.96
561.164	1628.72
561.367	1667.66
561.57	1666.11
561.774	1644.61
561.977	1646.74
562.18	1605.28
562.384	1719.39
562.587	1608.76
562.79	1657.39
562.993	1620.97
563.197	1658.75
563.4	1685.68
563.603	1680.84
563.806	1694.01
564.009	1621.55
564.212	1663.79
564.416	1582.8
564.619	1661.27
564.822	1563.43
565.025	1669.21
565.228	1607.21
565.431	1628.53
565.634	1476.82
565.837	1549.28
566.04	1495.42
566.243	1519.64
566.446	1463.07
566.649	1568.85
566.852	1519.64
567.055	1541.34
567.258	1548.12
567.461	1604.89
567.664	1615.35
567.867	1503.37
568.07	1539.6
568.273	1506.85
568.475	1581.45
568.678	1495.62
568.881	1502.2
569.084	1534.17
569.287	1452.6
569.489	1456.09
569.692	1518.67
569.895	1500.27
570.098	1436.52
570.3	1394.29
570.503	1375.3
570.706	1400.87
570.909	1396.22
571.111	1379.17
571.314	1343.72
571.516	1377.04
571.719	1391.19
571.922	1397.19
572.124	1371.23
572.327	1391.96
572.529	1399.71
572.732	1365.42
572.935	1385.76
573.137	1473.72
573.34	1371.62
573.542	1401.45
573.745	1404.94
573.947	1397.19
574.15	1333.64
574.352	1321.63
574.554	1420.64
574.757	1369.29
574.959	1300.51
575.162	1312.33
575.364	1315.43
575.566	1387.5
575.769	1307.87
575.971	1359.02
576.173	1246.07
576.376	1327.06
576.578	1382.85
576.78	1377.43
576.982	1252.46
577.185	1329.38
577.387	1291.02
577.589	1272.03
577.791	1321.63
577.993	1326.47
578.196	1283.85
578.398	1310.01
578.6	1295.28
578.802	1233.67
579.004	1241.61
579.206	1239.48
579.408	1270.29
579.61	1281.91
579.812	1326.67
580.014	1264.86
580.216	1264.09
580.418	1308.26
580.62	1254.98
580.822	1266.03
581.024	1268.35
581.226	1317.37
581.428	1274.94
581.63	1364.64
581.832	1265.06
582.034	1314.85
582.236	1306.13
582.438	1344.3
582.64	1327.25
582.841	1336.74
583.043	1379.17
583.245	1305.55
583.447	1311.75
583.649	1297.99
583.85	1312.14
584.052	1340.62
584.254	1270.09
584.456	1341.39
584.657	1278.62
584.859	1293.92
585.061	1263.7
585.262	1246.46
585.464	1249.94
585.666	1291.79
585.867	1230.96
586.069	1310.2
586.27	1315.82
586.472	1264.67
586.674	1233.67
586.875	1243.16
587.077	1241.42
587.278	1283.27
587.48	1254.98
587.681	1329.77
587.883	1283.85
588.084	1204.8
588.285	1275.13
588.487	1236.96
588.688	1197.63
588.89	1150.94
589.091	1131.37
589.292	1141.64
589.494	1131.18
589.695	1100.76
589.896	1021.13
590.098	1044.77
590.299	1108.12
590.5	1081.19
590.702	1085.26
590.903	1134.47
591.104	1202.86
591.305	1128.85
591.507	1206.54
591.708	1185.23
591.909	1160.63
592.11	1210.81
592.311	1191.63
592.512	1166.05
592.714	1099.6
592.915	1129.05
593.116	1164.89
593.317	1157.53
593.518	1120.33
593.719	1154.43
593.92	1189.11
594.121	1203.44
594.322	1143.38
594.523	1175.55
594.724	1100.76
594.925	1132.92
595.126	1147.06
595.327	1175.16
595.528	1146.1
595.729	1158.3
595.929	1128.27
596.13	1163.34
596.331	1140.28
596.532	1158.11
596.733	1222.24
596.934	1206.54
597.135	1188.33
597.335	1181.16
597.536	1150.75
597.737	1174.96
597.938	1155.2
598.138	1138.35
598.339	1147.84
598.54	1157.53
598.74	1117.61
598.941	1161.21
599.142	1164.7
599.342	1153.07
599.543	1126.14
599.744	1150.75
599.944	1174.77
600.145	1140.28
600.345	1162.76
600.546	1255.18
600.746	1175.35
600.947	1238.71
601.147	1170.9
601.348	1203.83
601.548	1143.77
601.749	1160.82
601.949	1103.47
602.15	1170.31
602.35	1137.18
602.551	1202.28
602.751	1111.61
602.951	1107.35
603.152	1099.79
603.352	1150.94
603.552	1143.19
603.753	1183.1
603.953	1166.05
604.153	1172.06
604.354	1153.07
604.554	1138.54
604.754	1135.25
604.954	1125.36
605.155	1176.51
605.355	1151.52
605.555	1193.56
605.755	1187.75
605.955	1111.61
606.155	1203.06
606.356	1138.35
606.556	1180.39
606.756	1163.92
606.956	1108.12
607.156	1197.05
607.356	1146.1
607.556	1133.89
607.756	1173.03
607.956	1194.73
608.156	1174.38
608.356	1125.17
608.556	1149
608.756	1092.43
608.956	1069.76
609.156	1146.1
609.356	1115.29
609.556	1116.26
609.755	1155.4
609.955	1092.62
610.155	1127.88
610.355	1094.17
610.555	1085.07
610.755	1120.33
610.954	1049.42
611.154	1106.18
611.354	1149.2
611.554	1064.72
611.753	1097.27
611.953	1059.49
612.153	1090.3
612.352	1118
612.552	1022.68
612.752	1025.39
612.951	1043.41
613.151	1095.53
613.351	1035.27
613.55	1071.12
613.75	1080.61
613.949	1052.71
614.149	1090.3
614.348	1040.12
614.548	1019
614.747	973.66
614.947	1045.93
615.146	973.47
615.346	1083.13
615.545	1084.29
615.745	1047.87
615.944	1081.97
616.144	1045.73
616.343	1053.29
616.542	1043.02
616.742	1030.82
616.941	1020.93
617.14	939.37
617.34	992.45
617.539	1001.17
617.738	996.72
617.938	1081.19
618.137	981.6
618.336	951.19
618.535	1025.39
618.734	1013.77
618.934	1060.07
619.133	1013.57
619.332	1033.72
619.531	1003.69
619.73	1000.59
619.929	1037.98
620.128	1021.32
620.328	1039.15
620.527	994
620.726	999.62
620.925	1007.95
621.124	991.29
621.323	1015.32
621.522	938.59
621.721	978.31
621.92	947.7
622.119	1023.26
622.318	993.42
622.517	1003.3
622.715	999.04
622.914	924.06
623.113	945.76
623.312	926.77
623.511	970.37
623.71	942.08
623.909	935.1
624.107	1008.73
624.306	921.35
624.505	936.65
624.704	956.03
624.902	942.08
625.101	993.81
625.3	977.73
625.499	899.65
625.697	905.27
625.896	934.52
626.095	933.55
626.293	894.03
626.492	914.57
626.69	961.65
626.889	925.03
627.088	922.71
627.286	923.29
627.485	926.58
627.683	883.96
627.882	925.03
628.08	824.67
628.279	871.17
628.477	930.26
628.676	835.13
628.874	907.4
629.073	862.45
629.271	852.57
629.469	886.67
629.668	877.56
629.866	863.42
630.065	844.43
630.263	892.87
630.461	867.29
630.66	848.89
630.858	866.52
631.056	893.26
631.254	940.34
631.453	865.94
631.651	903.14
631.849	862.45
632.047	915.15
632.245	902.94
632.444	915.54
632.642	889.57
632.84	907.98
633.038	868.65
633.236	883.57
633.434	867.49
633.632	859.35
633.83	861.87
634.028	939.95
634.227	911.27
634.425	978.7
634.623	887.44
634.821	915.54
635.019	902.56
635.216	867.87
635.414	918.64
635.612	877.17
635.81	858.38
636.008	969.59
636.206	892.29
636.404	912.44
636.602	871.17
636.8	893.84
636.997	922.51
637.195	962.04
637.393	912.05
637.591	957.19
637.789	930.07
637.986	912.82
638.184	908.56
638.382	955.45
638.58	929.49
638.777	959.13
638.975	900.62
639.173	928.32
639.37	931.23
639.568	935.49
639.765	918.25
639.963	894.42
640.161	920.38
640.358	916.51
640.556	873.69
640.753	883.18
640.951	861.67
641.148	879.5
641.346	879.11
641.543	900.62
641.741	902.36
641.938	847.14
642.136	869.23
642.333	834.55
642.531	920.77
642.728	932.78
642.925	880.27
643.123	878.14
643.32	901.01
643.517	873.69
643.715	857.02
643.912	847.34
644.109	894.61
644.306	858.57
644.504	815.56
644.701	871.56
644.898	929.29
645.095	863.61
645.293	847.14
645.49	863.61
645.687	913.02
645.884	910.69
646.081	781.46
646.278	812.27
646.475	815.18
646.672	796.19
646.87	844.24
647.067	815.18
647.264	815.18
647.461	784.95
647.658	774.49
647.855	822.15
648.052	783.98
648.249	687.5
648.446	788.83
648.642	796.96
648.839	793.09
649.036	799.48
649.233	754.92
649.43	765.19
649.627	740.39
649.824	746.01
650.021	766.16
650.217	779.91
650.414	725.66
650.611	784.56
650.808	795.22
651.004	787.28
651.201	785.53
651.398	857.8
651.595	808.59
651.791	779.14
651.988	815.18
652.185	729.15
652.381	771.19
652.578	739.42
652.775	776.04
652.971	770.42
653.168	765.38
653.364	810.33
653.561	733.61
653.757	781.08
653.954	783.21
654.15	747.75
654.347	831.26
654.543	765.96
654.74	718.5
654.936	698.35
655.133	736.32
655.329	752.79
655.525	740.58
655.722	757.63
655.918	715.59
656.115	739.81
656.311	641.19
656.507	646.23
656.704	595.27
656.9	635.18
657.096	631.12
657.292	641.58
657.489	711.33
657.685	697.18
657.881	680.33
658.077	692.92
658.273	691.18
658.47	771.97
658.666	699.9
658.862	744.07
659.058	687.11
659.254	738.45
659.45	691.76
659.646	741.36
659.842	699.7
660.038	756.28
660.234	689.63
660.43	742.71
660.626	802.58
660.822	778.36
661.018	775.65
661.214	716.56
661.41	709.78
661.606	743.68
661.802	746.78
661.998	713.07
662.194	691.18
662.39	739.42
662.586	756.86
662.781	730.12
662.977	719.08
663.173	742.13
663.369	725.66
663.564	724.7
663.76	739.23
663.956	711.33
664.152	773.33
664.347	650.68
664.543	706.87
664.739	718.3
664.934	658.05
665.13	683.43
665.326	722.56
665.521	718.69
665.717	683.81
665.912	690.6
666.108	631.5
666.304	707.26
666.499	685.95
666.695	645.84
666.89	672.58
667.086	737.48
667.281	682.07
667.477	731.48
667.672	714.23
667.867	684.01
668.063	698.35
668.258	661.73
668.454	689.43
668.649	764.99
668.844	660.37
669.04	698.93
669.235	673.74
669.43	670.83
669.626	649.33
669.821	687.5
670.016	665.21
670.211	689.43
670.407	666.38
670.602	681.3
670.797	661.73
670.992	698.15
671.187	627.43
671.382	706.29
671.578	664.63
671.773	655.92
671.968	624.14
672.163	665.6
672.358	678.2
672.553	644.1
672.748	645.45
672.943	696.6
673.138	668.51
673.333	666.18
673.528	625.5
673.723	709.78
673.918	662.5
674.113	635.57
674.308	738.26
674.503	668.51
674.698	678.58
674.892	639.83
675.087	680.52
675.282	661.34
675.477	621.43
675.672	669.86
675.867	616.2
676.061	608.45
676.256	605.15
676.451	635.18
676.646	678.97
676.84	628.98
677.035	572.99
677.23	600.31
677.424	668.7
677.619	670.45
677.814	659.98
678.008	658.43
678.203	554.59
678.397	641.58
678.592	642.55
678.787	677.42
678.981	626.47
679.176	640.03
679.37	643.52
679.565	618.91
679.759	617.36
679.954	647.2
680.148	696.8
680.342	684.78
680.537	680.71
680.731	629.18
680.926	654.37
681.12	680.13
681.314	594.88
681.509	624.92
681.703	646.81
681.897	645.65
682.092	626.47
682.286	610
682.48	666.76
682.674	666.18
682.869	602.83
683.063	627.63
683.257	667.54
683.451	612.71
683.645	637.9
683.839	617.75
684.034	604.18
684.228	648.75
684.422	612.13
684.616	577.64
684.81	650.3
685.004	632.47
685.198	642.55
685.392	646.81
685.586	624.33
685.78	636.54
685.974	666.38
686.168	633.83
686.362	681.88
686.556	573.38
686.75	542.19
686.944	545.29
687.138	573.19
687.331	478.44
687.525	488.32
687.719	446.47
687.913	516.22
688.107	510.41
688.301	456.36
688.494	518.35
688.688	480.19
688.882	461.97
689.076	474.96
689.269	496.85
689.463	562.72
689.657	509.05
689.85	485.81
690.044	520.49
690.238	499.17
690.431	513.12
690.625	509.44
690.818	573.38
691.012	573.57
691.205	591.78
691.399	531.72
691.593	591.78
691.786	598.95
691.98	638.09
692.173	630.53
692.366	631.89
692.56	630.15
692.753	677.03
692.947	600.12
693.14	677.42
693.333	645.84
693.527	632.67
693.72	665.99
693.914	620.27
694.107	630.92
694.3	654.37
694.493	608.83
694.687	687.11
694.88	614.65
695.073	714.62
695.266	717.53
695.46	702.22
695.653	720.82
695.846	750.08
696.039	672.77
696.232	694.47
696.425	723.73
696.618	769.45
696.812	741.75
697.005	783.4
697.198	864.77
697.391	807.43
697.584	830.87
697.777	861.29
697.97	864.97
698.163	868.26
698.356	819.24
698.549	927.55
698.742	865.74
698.935	800.84
699.127	846.76
699.32	849.27
699.513	822.73
699.706	886.47
699.899	898.49
700.092	876.01
700.285	903.14
700.477	851.99
700.67	933.75
700.863	929.68
701.056	1030.62
701.248	964.36
701.441	958.55
701.634	961.07
701.826	1028.49
702.019	938.79
702.212	1034.69
702.404	954.87
702.597	961.84
702.79	1008.34
702.982	1027.33
703.175	1033.53
703.367	1053.68
703.56	1062.98
703.752	1156.36
703.945	1121.49
704.137	1142.22
704.33	1157.91
704.522	1155.01
704.715	1160.05
704.907	1155.01
705.1	1199.38
705.292	1210.81
705.484	1209.26
705.677	1247.43
705.869	1245.1
706.061	1278.42
706.254	1310.01
706.446	1235.99
706.638	1277.07
706.831	1327.64
707.023	1281.33
707.215	1403
707.407	1367.35
707.599	1346.43
707.792	1432.45
707.984	1407.65
708.176	1465
708.368	1361.74
708.56	1432.07
708.752	1462.1
708.944	1411.92
709.136	1460.55
709.329	1446.99
709.521	1570.4
709.713	1513.83
709.905	1538.63
710.097	1579.9
710.289	1491.16
710.481	1533.4
710.672	1584.93
710.864	1606.25
711.056	1661.66
711.248	1659.91
711.44	1662.24
711.632	1637.24
711.824	1668.05
712.016	1735.86
712.207	1708.35
712.399	1701.38
712.591	1779.84
712.783	1730.44
712.975	1739.16
713.166	1741.87
713.358	1753.49
713.55	1802.9
713.741	1808.32
713.933	1810.84
714.125	1797.67
714.316	1761.24
714.508	1870.52
714.7	1875.94
714.891	1852.5
715.083	1916.82
715.274	1855.21
715.466	1907.33
715.657	1932.13
715.849	1856.37
716.04	1900.55
716.232	1851.72
716.423	1896.48
716.615	1802.9
716.806	1791.86
716.998	1763.37
717.189	1709.71
717.381	1626.98
717.572	1569.82
717.763	1642.67
717.955	1602.76
718.146	1582.8
718.337	1520.22
718.528	1493.1
718.72	1473.53
718.911	1538.63
719.102	1454.73
719.293	1533.78
719.485	1493.48
719.676	1507.82
719.867	1458.22
720.058	1462.68
720.249	1492.71
720.44	1518.28
720.632	1565.95
720.823	1608.76
721.014	1713.58
721.205	1765.89
721.396	1798.83
721.587	1953.05
721.778	1910.43
721.969	1945.5
722.16	1999.94
722.351	2062.33
722.542	2152.42
722.733	2172.57
722.924	2081.12
723.115	2143.31
723.305	2073.76
723.496	2134.01
723.687	2002.65
723.878	2041.6
724.069	2041.98
724.26	2050.31
724.45	1963.32
724.641	1964.48
724.832	2023.19
725.023	1957.32
725.213	1998.58
725.404	1950.92
725.595	2004.59
725.785	1976.88
725.976	2080.73
726.167	2042.18
726.357	2026.87
726.548	2132.66
726.739	2078.79
726.929	2125.49
727.12	2190.2
727.31	2193.3
727.501	2122.58
727.691	2169.66
727.882	2139.24
728.072	2214.81
728.263	2182.45
728.453	2258.2
728.644	2271.77
728.834	2258.98
729.024	2214.42
729.215	2213.84
729.405	2280.68
729.596	2326.6
729.786	2300.05
729.976	2343.07
730.167	2348.88
730.357	2323.69
730.547	2316.33
730.737	2374.45
730.928	2441.68
731.118	2464.55
731.308	2399.45
731.498	2447.88
731.688	2485.08
731.879	2541.85
732.069	2584.28
732.259	2613.92
732.449	2638.72
732.639	2725.91
732.829	2763.11
733.019	2748.97
733.209	2840.61
733.399	2868.31
733.589	2951.43
733.779	2973.33
733.969	2971
734.159	3044.43
734.349	3046.56
734.539	3102.56
734.729	3111.08
734.919	3161.07
735.109	3197.3
735.299	3098.87
735.488	3172.89
735.678	3125.03
735.868	3170.75
736.058	3160.49
736.248	3173.47
736.437	3070.97
736.627	3116.89
736.817	3220.16
737.007	3197.1
737.196	3256.2
737.386	3263.37
737.576	3253.1
737.765	3277.9
737.955	3244.18
738.144	3383.1
738.334	3351.33
738.524	3269.18
738.713	3301.53
738.903	3301.34
739.092	3336.41
739.282	3374.77
739.471	3394.14
739.661	3340.28
739.85	3410.03
740.04	3411.19
740.229	3454.79
740.419	3498.19
740.608	3515.43
740.797	3439.09
740.987	3535.19
741.176	3516.59
741.365	3432.12
741.555	3450.33
741.744	3535.97
741.933	3468.74
742.123	3550.3
742.312	3556.5
742.501	3606.88
742.69	3625.87
742.88	3544.88
743.069	3679.92
743.258	3637.88
743.447	3686.12
743.636	3620.83
743.825	3627.61
744.014	3684.18
744.204	3694.26
744.393	3634.78
744.582	3721.58
744.771	3706.27
744.96	3695.62
745.149	3728.55
745.338	3671.4
745.527	3720.22
745.716	3692.71
745.905	3721
746.094	3752.58
746.283	3762.85
746.471	3694.26
746.66	3761.88
746.849	3789.97
747.038	3771.76
747.227	3718.09
747.416	3780.28
747.604	3688.64
747.793	3737.08
747.982	3797.53
748.171	3730.68
748.359	3752.58
748.548	3784.74
748.737	3781.25
748.926	3774.08
749.114	3675.27
749.303	3759.75
749.491	3718.67
749.68	3649.12
749.869	3737.85
750.057	3733.01
750.246	3694.45
750.434	3690.38
750.623	3710.15
750.811	3710.92
751	3708.6
751.188	3702.01
751.377	3742.7
751.565	3681.08
751.754	3684.38
751.942	3692.71
752.131	3760.33
752.319	3694.07
752.507	3628.77
752.696	3704.72
752.884	3752.58
753.072	3675.08
753.261	3735.53
753.449	3677.02
753.637	3626.84
753.825	3735.91
754.014	3645.24
754.202	3659.38
754.39	3724.87
754.578	3725.45
754.766	3683.41
754.955	3666.94
755.143	3734.56
755.331	3662.1
755.519	3658.61
755.707	3664.81
755.895	3664.23
756.083	3619.86
756.271	3633.23
756.459	3624.12
756.647	3655.12
756.835	3592.15
757.023	3586.54
757.211	3578.98
757.399	3584.4
757.587	3554.76
757.775	3565.42
757.963	3555.15
758.151	3553.6
758.339	3531.9
758.526	3477.07
758.714	3482.69
758.902	3408.29
759.09	3306.18
759.278	3120.96
759.465	2859.98
759.653	2472.3
759.841	2214.81
760.028	1925.93
760.216	1670.38
760.404	1542.31
760.591	1269.9
760.779	1097.27
760.967	929.87
761.154	775.65
761.342	820.79
761.529	796.19
761.717	866.71
761.905	868.26
762.092	914.18
762.28	844.62
762.467	847.14
762.655	781.27
762.842	810.14
763.029	844.24
763.217	843.46
763.404	830.48
763.592	850.44
763.779	795.8
763.966	878.92
764.154	898.68
764.341	951.38
764.528	1003.69
764.716	1023.26
764.903	1090.3
765.09	1162.56
765.277	1221.46
765.465	1380.72
765.652	1460.74
765.839	1546.76
766.026	1677.93
766.213	1715.52
766.4	1838.16
766.588	2032.88
766.775	2053.22
766.962	2196.98
767.149	2215.77
767.336	2390.15
767.523	2363.8
767.71	2504.26
767.897	2657.32
768.084	2688.71
768.271	2755.55
768.458	2789.65
768.645	2872.38
768.832	2867.54
769.019	2876.84
769.206	2956.86
769.392	2991.54
769.579	3092.67
769.766	3048.5
769.953	3081.05
770.14	3099.46
770.327	3062.84
770.513	3147.12
770.7	3230.82
770.887	3155.84
771.073	3184.7
771.26	3178.12
771.447	3161.26
771.634	3134.14
771.82	3234.5
772.007	3141.5
772.193	3196.91
772.38	3179.09
772.567	3196.91
772.753	3171.53
772.94	3237.4
773.126	3204.08
773.313	3248.25
773.499	3222.29
773.686	3265.69
773.872	3154.67
774.059	3199.82
774.245	3133.36
774.432	3171.92
774.618	3083.76
774.804	3166.88
774.991	3117.28
775.177	3182.38
775.363	3180.83
775.55	3202.14
775.736	3082.99
775.922	3106.24
776.109	3113.02
776.295	3137.43
776.481	3116.89
776.667	3190.13
776.853	3100.81
777.04	3064
777.226	3074.46
777.412	3164.94
777.598	3068.46
777.784	3080.86
777.97	3057.8
778.156	3107.98
778.342	3091.12
778.528	3052.37
778.715	2977.2
778.901	3046.95
779.087	3068.07
779.272	3018.66
779.458	2987.86
779.644	3013.04
779.83	3043.85
780.016	3081.44
780.202	2983.59
780.388	3039.2
780.574	2934.58
780.76	2983.59
780.946	3020.21
781.131	2949.69
781.317	2963.64
781.503	2930.7
781.689	2955.5
781.874	3024.47
782.06	2900.86
782.246	2940.97
782.432	2937.29
782.617	2958.79
782.803	2941.55
782.989	2877.81
783.174	2890.4
783.36	2863.08
783.545	2875.68
783.731	2874.71
783.916	2828.98
784.102	2878.78
784.288	2833.25
784.473	2865.02
784.659	2803.41
784.844	2838.67
785.029	2797.21
785.215	2836.35
785.4	2768.73
785.586	2880.91
785.771	2772.8
785.956	2793.33
786.142	2791.01
786.327	2744.7
786.512	2768.15
786.698	2709.44
786.883	2709.44
787.068	2721.45
787.254	2753.23
787.439	2719.13
787.624	2710.99
787.809	2696.27
787.994	2662.36
788.18	2758.85
788.365	2642.99
788.55	2653.45
788.735	2685.03
788.92	2678.25
789.105	2668.95
789.29	2700.34
789.475	2574.59
789.66	2611.21
789.845	2555.03
790.03	2559.87
790.215	2598.81
790.4	2630.01
790.585	2649.57
790.77	2541.27
790.955	2548.83
791.14	2564.91
791.325	2613.15
791.51	2462.41
791.695	2540.3
791.879	2524.41
792.064	2511.43
792.249	2592.42
792.434	2535.07
792.618	2558.13
792.803	2597.46
792.988	2545.34
793.173	2553.86
793.357	2616.83
793.542	2478.11
793.727	2555.8
793.911	2624.39
794.096	2551.93
794.281	2606.56
794.465	2654.03
794.65	2576.53
794.834	2615.67
795.019	2621.87
795.203	2638.92
795.388	2621.48
795.572	2658.49
795.757	2609.86
795.941	2596.49
796.126	2581.96
796.31	2532.36
796.494	2597.46
796.679	2553.67
796.863	2544.18
797.048	2628.84
797.232	2564.71
797.416	2615.86
797.601	2601.33
797.785	2656.94
797.969	2666.82
798.153	2595.52
798.338	2663.14
798.522	2643.96
798.706	2659.07
798.89	2638.53
799.074	2726.69
799.258	2665.46
799.443	2649.19
799.627	2641.24
799.811	2680.19
799.995	2598.23
800.179	2594.36
800.363	2623.22
800.547	2617.22
800.731	2644.54
800.915	2528.87
801.099	2545.73
801.283	2612.96
801.467	2629.81
801.651	2591.45
801.835	2615.09
802.019	2624.97
802.202	2605.4
802.386	2554.64
802.57	2522.86
802.754	2574.79
802.938	2558.71
803.121	2567.23
803.305	2656.36
803.489	2612.96
803.673	2561.42
803.856	2577.5
804.04	2578.86
804.224	2611.99
804.407	2573.63
804.591	2519.76
804.775	2593.58
804.958	2573.82
805.142	2694.72
805.326	2612.18
805.509	2616.83
805.693	2625.55
805.876	2626.91
806.06	2631.94
806.243	2610.44
806.427	2652.29
806.61	2682.32
806.794	2582.15
806.977	2630.01
807.16	2623.42
807.344	2632.33
807.527	2646.86
807.71	2621.67
807.894	2603.66
808.077	2646.09
808.26	2602.49
808.444	2547.28
808.627	2638.53
808.81	2555.22
808.993	2514.92
809.177	2483.53
809.36	2517.05
809.543	2575.95
809.726	2459.9
809.909	2430.64
810.092	2417.46
810.276	2419.01
810.459	2413.78
810.642	2409.72
810.825	2404.29
811.008	2384.72
811.191	2308.58
811.374	2366.51
811.557	2359.92
811.74	2406.03
811.923	2257.04
812.106	2263.63
812.289	2235.15
812.472	2249.49
812.654	2218.87
812.837	2195.04
813.02	2149.51
813.203	2125.29
813.386	2026.68
813.569	2006.14
813.751	1957.12
813.934	2031.13
814.117	1980.37
814.3	1894.93
814.482	1849.2
814.665	1857.15
814.848	1803.67
815.03	1745.16
815.213	1769.96
815.396	1758.92
815.578	1761.05
815.761	1696.92
815.943	1779.07
816.126	1649.26
816.309	1638.21
816.491	1588.81
816.674	1546.18
816.856	1575.25
817.039	1598.69
817.221	1650.03
817.403	1584.16
817.586	1599.85
817.768	1614.58
817.951	1533.01
818.133	1526.03
818.315	1556.65
818.498	1579.51
818.68	1615.74
818.862	1607.8
819.045	1653.91
819.227	1634.34
819.409	1597.33
819.591	1639.38
819.774	1628.33
819.956	1578.54
820.138	1682.58
820.32	1691.49
820.502	1736.25
820.684	1781.59
820.866	1804.25
821.048	1839.9
821.231	1838.94
821.413	1817.62
821.595	1806.77
821.777	1839.13
821.959	1817.62
822.141	1857.34
822.323	1737.22
822.505	1643.64
822.686	1631.43
822.868	1575.44
823.05	1442.14
823.232	1415.02
823.414	1337.52
823.596	1441.56
823.778	1437.3
823.96	1457.06
824.141	1438.85
824.323	1486.32
824.505	1556.84
824.687	1646.54
824.868	1680.45
825.05	1722.49
825.232	1787.79
825.413	1848.43
825.595	1795.34
825.777	1750.39
825.958	1791.27
826.14	1784.49
826.321	1800.96
826.503	1774.61
826.685	1806
826.866	1800.38
827.048	1786.62
827.229	1738.38
827.411	1707.96
827.592	1631.04
827.773	1652.74
827.955	1595.01
828.136	1627.75
828.318	1620.58
828.499	1610.51
828.68	1557.23
828.862	1599.08
829.043	1613.22
829.224	1576.8
829.406	1562.07
829.587	1577.38
829.768	1607.02
829.949	1568.27
830.131	1589
830.312	1667.86
830.493	1591.33
830.674	1650.42
830.855	1595.4
831.036	1603.73
831.218	1658.94
831.399	1665.92
831.58	1605.86
831.761	1646.74
831.942	1631.04
832.123	1571.37
832.304	1566.14
832.485	1600.24
832.666	1593.26
832.847	1628.33
833.028	1594.43
833.209	1624.46
833.389	1598.5
833.57	1536.5
833.751	1564.59
833.932	1627.75
834.113	1593.65
834.294	1575.83
834.475	1603.53
834.655	1656.62
834.836	1669.21
835.017	1647.9
835.198	1612.25
835.378	1643.64
835.559	1706.61
835.74	1636.47
835.92	1600.63
836.101	1601.4
836.281	1670.76
836.462	1657.39
836.643	1672.12
836.823	1689.56
837.004	1669.21
837.184	1743.81
837.365	1689.36
837.545	1677.16
837.726	1630.27
837.906	1751.17
838.087	1668.24
838.267	1656.43
838.448	1640.73
838.628	1691.88
838.808	1661.85
838.989	1720.56
839.169	1643.44
839.349	1734.31
839.53	1717.84
839.71	1704.67
839.89	1662.24
840.07	1734.12
840.251	1668.24
840.431	1728.31
840.611	1681.03
840.791	1663.98
840.971	1679.09
841.151	1654.1
841.332	1646.16
841.512	1726.76
841.692	1602.56
841.872	1691.11
842.052	1665.73
842.232	1691.11
842.412	1597.91
842.592	1671.15
842.772	1661.85
842.952	1687.81
843.132	1669.6
843.312	1620.39
843.492	1604.5
843.672	1702.15
843.851	1577.38
844.031	1623.1
844.211	1599.08
844.391	1605.08
844.571	1655.26
844.751	1641.31
844.93	1619.61
845.11	1611.67
845.29	1611.48
845.47	1635.5
845.649	1606.05
845.829	1666.5
846.009	1616.71
846.188	1624.07
846.368	1610.12
846.547	1625.04
846.727	1652.74
846.907	1559.16
847.086	1601.01
847.266	1635.11
847.445	1595.98
847.625	1628.91
847.804	1573.89
847.984	1603.73
848.163	1585.13
848.343	1610.12
848.522	1565.36
848.701	1626.59
848.881	1570.98
849.06	1578.35
849.239	1606.44
849.419	1580.48
849.598	1495.42
849.777	1534.37
849.957	1517.51
850.136	1480.7
850.315	1415.6
850.494	1440.79
850.674	1449.89
850.853	1510.15
851.032	1487.09
851.211	1522.55
851.39	1470.82
851.569	1421.22
851.748	1451.83
851.927	1506.08
852.107	1435.17
852.286	1432.65
852.465	1438.27
852.644	1482.44
852.823	1484.77
853.002	1466.75
853.181	1463.45
853.359	1439.62
853.538	1406.1
853.717	1458.8
853.896	1376.46
854.075	1329.77
854.254	1321.05
854.433	1248.39
854.611	1332.67
854.79	1207.32
854.969	1306.71
855.148	1342.75
855.327	1277.65
855.505	1330.16
855.684	1315.24
855.863	1327.83
856.041	1305.74
856.22	1348.17
856.399	1341.78
856.577	1406.88
856.756	1394.67
856.934	1512.86
857.113	1473.92
857.291	1395.45
857.47	1396.61
857.648	1400.68
857.827	1391.77
858.005	1456.87
858.184	1355.92
858.362	1453.18
858.541	1380.34
858.719	1405.14
858.898	1364.84
859.076	1404.55
859.254	1430.71
859.433	1402.04
859.611	1405.33
859.789	1343.91
859.967	1425.09
860.146	1425.09
860.324	1351.47
860.502	1362.32
860.68	1276.68
860.859	1349.34
861.037	1330.93
861.215	1392.54
861.393	1355.34
861.571	1339.84
861.749	1354.37
861.927	1378.79
862.105	1320.66
862.283	1379.56
862.461	1336.94
862.639	1303.81
862.817	1316.98
862.995	1338.49
863.173	1304.19
863.351	1330.16
863.529	1367.35
863.707	1345.27
863.885	1344.3
864.063	1242.58
864.241	1293.54
864.418	1376.65
864.596	1298.77
864.774	1269.51
864.952	1301.87
865.129	1282.49
865.307	1276.49
865.485	1225.92
865.663	1290.82
865.84	1199.76
866.018	1226.11
866.196	1118.97
866.373	1122.07
866.551	1129.63
866.728	1076.15
866.906	1114.32
867.084	1157.33
867.261	1163.15
867.439	1185.04
867.616	1204.99
867.794	1169.15
867.971	1178.26
868.149	1214.1
868.326	1240.06
868.503	1242.97
868.681	1208.87
868.858	1169.35
869.035	1175.16
869.213	1220.49
869.39	1172.45
869.567	1260.99
869.745	1183.68
869.922	1213.71
870.099	1221.08
870.276	1221.46
870.454	1233.28
870.631	1214.1
870.808	1209.26
870.985	1193.95
871.162	1276.49
871.339	1186.2
871.517	1143
871.694	1147.06
871.871	1167.21
872.048	1177.68
872.225	1170.12
872.402	1189.11
872.579	1148.23
872.756	1167.6
872.933	1094.17
873.11	1156.56
873.287	1157.72
873.463	1130.01
873.64	1141.83
873.817	1130.01
873.994	1146.48
874.171	1114.13
874.348	1137.76
874.524	1091.07
874.701	1102.5
874.878	1075.38
875.055	1108.12
875.231	1112.58
875.408	1157.14
875.585	1089.91
875.762	1118.97
875.938	1097.47
876.115	1095.14
876.291	1107.93
876.468	1101.15
876.645	1064.53
876.821	1065.5
876.998	1059.49
877.174	1110.25
877.351	1074.99
877.527	1053.48
877.704	1077.7
877.88	1074.6
878.057	1049.42
878.233	1091.85
878.409	1050.77
878.586	1068.6
878.762	1051.55
878.938	1049.61
879.115	1001.95
879.291	1046.51
879.467	1013.96
879.644	1048.25
879.82	1055.42
879.996	997.1
880.172	1019.97
880.349	1013.38
880.525	1060.07
880.701	985.48
880.877	981.99
881.053	1013.57
881.229	998.27
881.405	1043.22
881.581	985.29
881.757	1000.79
881.933	1019.19
882.109	1023.84
882.285	1007.18
882.461	961.07
882.637	1007.37
882.813	1001.17
882.989	995.75
883.165	1051.16
883.341	963.2
883.517	1029.27
883.693	1034.11
883.869	1018.03
884.044	1008.92
884.22	1018.8
884.396	1068.4
884.572	1020.55
884.747	1045.35
884.923	1034.5
885.099	992.65
885.275	1050
885.45	943.44
885.626	1017.25
885.801	976.76
885.977	993.23
886.153	939.75
886.328	974.05
886.504	965.72
886.679	1009.12
886.855	963
887.03	981.02
887.206	1005.05
887.381	1025
887.557	1018.22
887.732	1012.6
887.908	1023.84
888.083	1016.87
888.258	1007.76
888.434	988.77
888.609	1000.59
888.784	1050.19
888.96	993.04
889.135	993.81
889.31	958.94
889.485	998.27
889.661	979.86
889.836	1030.82
890.011	1000.01
890.186	997.3
890.361	1003.5
890.537	1006.6
890.712	1020.35
890.887	985.87
891.062	975.02
891.237	1038.37
891.412	967.85
891.587	995.17
891.762	1022.48
891.937	1032.75
892.112	967.65
892.287	954.87
892.462	926
892.637	921.16
892.812	914.37
892.987	925.8
893.161	907.98
893.336	884.73
893.511	919.41
893.686	924.26
893.861	904.11
894.035	903.14
894.21	908.76
894.385	845.79
894.56	886.67
894.734	831.64
894.909	818.47
895.084	838.23
895.258	808.78
895.433	808.2
895.608	781.85
895.782	739.42
895.957	740
896.131	776.62
896.306	708.81
896.48	699.31
896.655	707.65
896.829	631.7
897.004	645.45
897.178	668.12
897.353	637.9
897.527	691.56
897.701	658.24
897.876	632.67
898.05	700.86
898.224	678.58
898.399	716.17
898.573	647.39
898.747	543.35
898.921	607.87
899.096	502.47
899.27	528.24
899.444	535.6
899.618	550.9
899.792	583.07
899.967	571.64
900.141	630.34
900.315	539.28
900.489	558.27
900.663	599.34
900.837	573.38
901.011	524.55
901.185	600.5
901.359	561.75
901.533	591.01
901.707	597.6
901.881	579.58
902.055	562.72
902.229	580.55
902.403	603.6
902.576	570.67
902.75	578.22
902.924	673.74
903.098	646.23
903.272	685.17
903.446	726.83
903.619	704.55
903.793	725.66
903.967	685.75
904.14	756.28
904.314	750.66
904.488	725.66
904.661	772.94
904.835	706.68
905.009	775.65
905.182	800.45
905.356	747.95
905.529	713.07
905.703	703.58
905.876	696.21
906.05	645.84
906.223	677.23
906.397	571.25
906.57	593.14
906.744	581.52
906.917	564.08
907.09	605.15
907.264	585.39
907.437	541.41
907.61	528.62
907.784	524.17
907.957	564.27
908.13	518.16
908.304	553.62
908.477	533.08
908.65	510.41
908.823	478.06
908.996	572.6
909.17	504.99
909.343	484.06
909.516	504.79
909.689	515.06
909.862	482.51
910.035	524.55
910.208	457.71
910.381	457.91
910.554	586.94
910.727	483.29
910.9	486.58
911.073	479.22
911.246	513.51
911.419	569.7
911.592	538.89
911.765	469.92
911.938	512.54
912.11	519.52
912.283	506.15
912.456	548.97
912.629	516.42
912.802	476.12
912.974	456.74
913.147	415.47
913.32	373.82
913.493	419.93
913.665	428.84
913.838	441.63
914.01	398.62
914.183	434.85
914.356	435.82
914.528	473.41
914.701	524.55
914.873	495.88
915.046	421.48
915.218	411.6
915.391	341.27
915.563	359.29
915.736	396.88
915.908	459.07
916.081	443.76
916.253	407.14
916.425	435.04
916.598	435.62
916.77	440.47
916.942	377.89
917.115	339.72
917.287	418.38
917.459	401.52
917.632	333.91
917.804	333.91
917.976	405.4
918.148	432.72
918.32	410.24
918.493	457.32
918.665	488.52
918.837	450.54
919.009	500.72
919.181	480.77
919.353	475.15
919.525	475.73
919.697	472.63
919.869	493.55
920.041	544.51
920.213	583.07
920.385	500.14
920.557	454.03
920.729	511.96
920.901	454.61
921.073	466.43
921.244	464.11
921.416	487.36
921.588	469.14
921.76	476.89
921.932	509.05
922.103	456.74
922.275	488.52
922.447	478.06
922.619	382.34
922.79	445.89
922.962	446.28
923.134	472.82
923.305	426.32
923.477	397.84
923.648	405.01
923.82	394.16
923.991	356.77
924.163	362.19
924.335	389.51
924.506	372.46
924.677	429.04
924.849	385.06
925.02	398.81
925.192	420.9
925.363	399.78
925.535	380.02
925.706	357.54
925.877	421.09
926.049	372.27
926.22	403.27
926.391	390.09
926.562	403.66
926.734	397.46
926.905	442.21
927.076	342.63
927.247	350.57
927.419	329.26
927.59	331.97
927.761	349.41
927.932	335.26
928.103	344.37
928.274	288.38
928.445	279.85
928.616	251.95
928.787	268.03
928.958	315.69
929.129	258.73
929.3	270.16
929.471	238.39
929.642	168.45
929.813	136.67
929.984	257.18
930.155	139.77
930.326	236.26
930.496	180.07
930.667	129.12
930.838	188.02
931.009	128.92
931.18	143.07
931.35	174.07
931.521	165.35
931.692	86.49
931.863	68.86
932.033	157.79
932.204	97.92
932.374	107.8
932.545	82.62
932.716	111.68
932.886	129.89
933.057	29.92
933.227	68.67
933.398	134.35
933.568	64.02
933.739	24.11
933.909	65.76
934.08	90.95
934.25	6.09
934.421	20.23
934.591	82.23
934.761	35.92
934.932	11.9
935.102	67.7
935.272	42.9
935.443	46
935.613	39.22
935.783	51.23
935.953	10.16
936.123	174.84
936.294	6.47
936.464	15.97
936.634	49.49
936.804	8.41
936.974	25.07
937.144	56.65
937.314	52.97
937.484	28.56
937.655	11.51
937.825	77.58
937.995	12.87
938.165	76.42
938.334	33.02
938.504	60.34
938.674	33.79
938.844	63.24
939.014	109.16
939.184	98.7
939.354	139.19
939.524	110.9
939.694	81.84
939.863	60.72
940.033	139.19
940.203	153.72
940.373	101.99
940.542	111.49
940.712	72.15
940.882	138.03
941.051	137.84
941.221	129.31
941.391	153.53
941.56	84.55
941.73	81.84
941.899	172.9
942.069	66.54
942.238	123.3
942.408	69.64
942.577	105.29
942.747	80.87
942.916	29.92
943.086	86.3
943.255	109.74
943.425	76.8
943.594	70.6
943.763	10.35
943.933	61.69
944.102	17.91
944.271	64.79
944.441	102.38
944.61	49.49
944.779	75.84
944.948	133.38
945.117	44.06
945.287	37.67
945.456	13.26
945.625	35.92
945.794	86.1
945.963	42.12
946.132	85.72
946.301	70.41
946.47	98.5
946.639	11.32
946.808	35.54
946.977	83
947.146	101.41
947.315	44.26
947.484	80.29
947.653	35.92
947.822	54.14
947.991	40.77
948.16	133.19
948.329	112.84
948.498	73.32
948.666	43.67
948.835	109.94
949.004	26.04
949.173	27.4
949.341	71.96
949.51	81.26
949.679	91.14
949.847	99.67
950.016	145.39
950.185	141.9
950.353	44.06
950.522	71.57
950.69	109.94
950.859	61.3
951.028	117.88
951.196	80.49
951.365	49.87
951.533	61.69
951.701	84.36
951.87	94.82
952.038	60.14
952.207	61.89
952.375	124.66
952.543	30.31
952.712	85.14
952.88	64.99
953.048	112.65
953.217	57.43
953.385	79.13
953.553	128.34
953.721	40.38
953.89	51.04
954.058	24.11
954.226	53.94
954.394	72.93
954.562	33.41
954.73	58.98
954.898	51.04
955.067	112.07
955.235	41.35
955.403	78.94
955.571	113.04
955.739	82.04
955.907	22.75
956.075	62.66
956.243	47.94
956.41	82.04
956.578	34.37
956.746	44.26
956.914	46.97
957.082	101.22
957.25	70.99
957.418	57.24
957.585	80.29
957.753	114.2
957.921	45.61
958.089	57.43
958.256	78.16
958.424	86.3
958.592	48.13
958.759	48.71
958.927	84.55
959.095	28.56
959.262	86.1
959.43	95.21
959.597	40.57
959.765	73.12
959.932	39.8
960.1	95.21
960.267	93.27
960.435	77.58
960.602	88.43
960.77	71.38
960.937	18.87
961.104	76.03
961.272	23.52
961.439	86.1
961.606	66.54
961.774	106.84
961.941	64.21
962.108	83.97
962.275	95.99
962.443	97.54
962.61	99.28
962.777	145.39
962.944	83
963.111	110.52
963.278	98.31
963.446	104.7
963.613	89.01
963.78	101.41
963.947	96.37
964.114	100.44
964.281	167.48
964.448	88.04
964.615	101.22
964.782	108.77
964.949	121.37
965.116	116.72
965.282	160.12
965.449	101.8
965.616	71.77
965.783	130.09
965.95	90.95
966.117	56.46
966.283	66.73
966.45	118.65
966.617	75.64
966.784	131.64
966.95	146.94
967.117	116.52
967.284	75.25
967.45	85.52
967.617	133.38
967.784	120.59
967.95	142.68
968.117	102.38
968.283	156.05
968.45	211.65
968.616	108
968.783	132.41
968.949	123.69
969.116	161.28
969.282	116.52
969.449	125.24
969.615	108
969.781	105.87
969.948	120.98
970.114	60.14
970.28	174.45
970.447	139.19
970.613	141.71
970.779	118.27
970.945	117.1
971.112	119.43
971.278	112.07
971.444	109.16
971.61	151.2
971.776	103.74
971.942	136.87
972.108	144.42
972.275	123.69
972.441	130.86
972.607	172.71
972.773	92.69
972.939	127.37
973.105	92.11
973.271	77.19
973.437	111.29
973.602	73.12
973.768	109.74
973.934	89.79
974.1	129.31
974.266	57.43
974.432	104.9
974.598	73.51
974.763	141.9
974.929	75.06
975.095	182.59
975.261	95.21
975.426	50.46
975.592	67.5
975.758	152.75
975.923	67.89
976.089	84.94
976.255	118.07
976.42	82.04
976.586	105.67
976.751	119.24
976.917	161.47
977.082	131.05
977.248	78.16
977.413	58.01
977.579	80.29
977.744	91.34
977.91	69.64
978.075	98.7
978.24	102.57
978.406	70.8
978.571	80.87
978.736	69.83
978.902	110.13
979.067	60.53
979.232	46.39
979.397	110.52
979.563	148.3
979.728	68.47
979.893	96.18
980.058	90.37
980.223	123.69
980.388	94.05
980.554	88.62
980.719	98.89
980.884	102.96
981.049	136.29
981.214	77.39
981.379	102.19
981.544	70.02
981.709	83.78
981.874	73.51
982.039	75.84
982.204	111.1
982.368	93.85
982.533	72.54
982.698	125.63
982.863	133.38
983.028	83.97
983.193	109.74
983.357	113.42
983.522	130.86
983.687	96.57
983.852	104.7
984.016	48.52
984.181	116.72
984.346	132.8
984.51	103.74
984.675	92.89
984.839	131.83
985.004	87.46
985.168	110.71
985.333	112.45
985.498	61.5
985.662	113.04
985.827	122.92
985.991	93.85
986.155	83
986.32	106.64
986.484	152.56
986.649	112.07
986.813	58.4
986.977	118.27
987.142	129.7
987.306	66.92
987.47	74.09
987.634	91.14
987.799	114.2
987.963	96.18
988.127	89.98
988.291	170.58
988.455	98.89
988.62	80.1
988.784	118.46
988.948	138.22
989.112	53.75
989.276	117.3
989.44	93.27
989.604	75.25
989.768	104.32
989.932	140.93
990.096	61.69
990.26	59.56
990.424	55.1
990.588	82.23
990.752	137.25
990.915	96.76
991.079	75.84
991.243	67.12
991.407	115.36
991.571	78.94
991.734	115.75
991.898	104.32
992.062	166.12
992.226	62.85
992.389	70.6
992.553	15.58
992.717	68.47
992.88	59.56
993.044	104.9
993.207	67.5
993.371	105.87
993.535	83.97
993.698	70.8
993.862	110.9
994.025	120.98
994.189	83.59
994.352	94.24
994.515	90.37
994.679	107.42
994.842	70.02
995.006	97.54
995.169	59.56
995.332	65.18
995.496	107.8
995.659	39.8
995.822	59.37
995.985	109.94
996.149	104.32
996.312	58.59
996.475	155.08
996.638	72.54
996.801	107.03
996.964	121.37
997.128	79.71
997.291	38.06
997.454	94.05
997.617	49.68
997.78	134.35
997.943	51.81
998.106	96.37
998.269	47.74
998.432	92.69
998.595	88.43
998.758	22.56
998.92	60.14
999.083	27.98
999.246	64.99
999.409	62.27
999.572	16.74
999.735	60.14
999.897	90.17
1000.06	67.12
1000.223	55.69
1000.386	89.4
1000.548	118.07
1000.711	93.85
1000.874	75.45
1001.036	14.03
1001.199	92.69
1001.361	66.73
1001.524	69.64
1001.687	97.34
1001.849	50.07
1002.012	100.83
1002.174	61.3
1002.337	80.49
1002.499	52.2
1002.661	119.24
1002.824	43.87
1002.986	34.96
1003.149	57.24
1003.311	19.07
1003.473	122.34
1003.636	61.11
1003.798	87.27
1003.96	68.86
1004.123	72.54
1004.285	37.67
1004.447	58.4
1004.609	70.22
1004.771	115.36
1004.933	0.47
1005.096	22.94
1005.258	-4.76
1005.42	38.64
1005.582	83.39
1005.744	75.84
1005.906	23.72
1006.068	33.79
1006.23	28.76
1006.392	32.24
1006.554	29.92
1006.716	58.01
1006.878	71.96
1007.04	32.63
1007.202	25.46
1007.363	71.96
1007.525	61.5
1007.687	68.28
1007.849	87.85
1008.011	18.87
1008.172	23.91
1008.334	21.78
1008.496	73.7
1008.658	-17.55
1008.819	55.3
1008.981	20.62
1009.143	63.82
1009.304	18.87
1009.466	58.2
1009.627	97.54
1009.789	122.53
1009.95	74.67
1010.112	41.35
1010.273	78.74
1010.435	27.59
1010.596	22.75
1010.758	36.31
1010.919	36.31
1011.081	41.16
1011.242	25.66
1011.403	28.56
1011.565	32.82
1011.726	88.82
1011.887	19.07
1012.049	47.36
1012.21	64.6
1012.371	84.55
1012.532	-12.9
1012.693	34.37
1012.855	9.57
1013.016	42.12
1013.177	60.34
1013.338	40.77
1013.499	92.3
1013.66	71.57
1013.821	71.19
1013.982	39.61
1014.143	24.3
1014.304	43.09
1014.465	66.73
1014.626	81.45
1014.787	25.66
1014.948	115.75
1015.109	-41.38
1015.27	71.19
1015.431	17.52
1015.592	36.12
1015.752	80.68
1015.913	33.21
1016.074	32.63
1016.235	32.05
1016.395	30.69
1016.556	46.39
1016.717	37.09
1016.877	87.65
1017.038	1.63
1017.199	24.3
1017.359	39.61
1017.52	27.01
1017.681	47.16
1017.841	39.61
1018.002	16.16
1018.162	16.74
1018.323	54.14
1018.483	40.38
1018.644	3.76
1018.804	9.77
1018.964	9.38
1019.125	27.01
1019.285	27.98
1019.446	10.93
1019.606	9.19
1019.766	-23.56
1019.926	41.93
1020.087	17.13
1020.247	-38.09
1020.407	37.86
1020.567	46.19
1020.728	47.16
1020.888	11.12
1021.048	1.24
1021.208	3.76
1021.368	7.25
1021.528	62.66
1021.688	66.34
1021.848	63.24
1022.008	36.51
1022.168	12.48
1022.328	42.32
1022.488	32.82
1022.648	40.96
1022.808	4.92
1022.968	48.71
1023.128	-7.48
1023.288	8.41
1023.448	31.66
1023.608	21.78
1023.767	39.99
1023.927	1.24
1024.087	14.61
1024.247	-0.11
1024.406	36.31
1024.566	-0.89
1024.726	-4.76
1024.885	33.21
1025.045	20.23
1025.205	34.57
1025.364	28.37
1025.524	43.09
1025.683	-11.35
1025.843	20.81
1026.003	22.56
1026.162	72.15
1026.321	54.72
1026.481	46.39
1026.64	13.84
1026.8	25.46
1026.959	16.94
1027.119	10.54
1027.278	18.68
1027.437	-8.06
1027.597	35.34
1027.756	29.92
1027.915	26.43
1028.074	32.44
1028.234	12.29
1028.393	56.07
1028.552	10.54
1028.711	-44.09
1028.87	57.82
1029.03	22.36
1029.189	38.06
1029.348	-41.38
1029.507	7.25
1029.666	16.36
1029.825	-0.69
1029.984	6.28
1030.143	25.66
1030.302	-8.44
1030.461	-27.24
1030.62	19.07
1030.779	48.52
1030.938	-21.23
1031.097	-14.84
1031.255	44.84
1031.414	64.99
1031.573	69.05
1031.732	-25.88
1031.891	10.54
1032.049	50.07
1032.208	61.69
1032.367	-8.06
1032.525	6.67
1032.684	4.54
1032.843	6.47
1033.001	-36.15
1033.16	165.35
1033.319	83.97
1033.477	48.91
1033.636	1.05
1033.794	-25.3
1033.953	46.58
1034.111	50.65
1034.27	-20.65
1034.428	33.79
1034.587	-20.84
1034.745	31.47
1034.903	33.41
1035.062	46.19
1035.22	-22.78
1035.378	44.26
1035.537	-21.04
1035.695	30.89
1035.853	7.64
1036.011	54.52
1036.17	17.52
1036.328	-27.82
1036.486	42.32
1036.644	35.15
1036.802	-55.14
1036.96	-11.16
1037.119	20.42
1037.277	3.76
1037.435	-34.6
1037.593	-33.05
1037.751	18.1
1037.909	46
1038.067	46
