Data from oakcork_FLMT105791__208__17-32-21-056.txt Node

Date: Mon Mar 20 17:32:21 GMT 2023
User: antho
Spectrometer: FLMT10579
Trigger mode: 0
Integration Time (sec): 1.000000E-1
Scans to average: 10
Electric dark correction enabled: true
Nonlinearity correction enabled: false
Boxcar width: 0
XAxis mode: Wavelengths
Number of Pixels in Spectrum: 3648
>>>>>Begin Spectral Data<<<<<
345.248	-159.47
345.464	-159.47
345.681	-159.47
345.898	-143.58
346.114	-159.47
346.331	-46.9
346.548	17.23
346.764	-6.41
346.981	-13.77
347.197	18.39
347.414	-6.6
347.631	-33.15
347.847	52.49
348.064	-4.86
348.28	61.79
348.497	-32.95
348.713	-5.25
348.93	36.99
349.146	34.47
349.363	-7.57
349.579	14.9
349.796	-3.5
350.012	-13.58
350.229	0.18
350.445	14.9
350.661	-39.35
350.878	-8.54
351.094	6.57
351.311	28.08
351.527	26.53
351.743	-16.29
351.96	28.46
352.176	12.77
352.392	21.88
352.609	31.56
352.825	-13.19
353.041	7.15
353.257	-38.38
353.474	16.45
353.69	-18.81
353.906	35.05
354.122	-29.66
354.339	35.05
354.555	8.31
354.771	-3.5
354.987	59.46
355.203	52.3
355.42	-15.13
355.636	0.37
355.852	-10.09
356.068	-13.38
356.284	0.76
356.5	44.74
356.716	45.9
356.932	4.63
357.148	7.35
357.364	11.8
357.58	55.98
357.796	25.36
358.012	37.96
358.228	15.48
358.444	-64.15
358.66	65.47
358.876	10.25
359.092	-21.91
359.308	15.29
359.524	24.78
359.74	-6.02
359.956	-23.65
360.172	-12.22
360.388	35.25
360.604	-20.75
360.819	61.98
361.035	29.63
361.251	37.57
361.467	-5.25
361.683	34.66
361.898	14.32
362.114	39.31
362.33	19.75
362.546	55.01
362.762	5.8
362.977	6.96
363.193	-40.9
363.409	21.1
363.624	-28.69
363.84	-21.13
364.056	-8.54
364.271	42.61
364.487	1.34
364.703	7.35
364.918	-15.52
365.134	6.18
365.35	-17.84
365.565	87.17
365.781	6.96
365.996	13.16
366.212	70.12
366.427	16.45
366.643	-13
366.858	11.8
367.074	-39.54
367.289	54.04
367.505	111.58
367.72	-6.02
367.936	-4.28
368.151	63.15
368.367	33.11
368.582	29.24
368.798	-31.4
369.013	55.2
369.228	7.15
369.444	8.7
369.659	76.51
369.874	13.16
370.09	34.28
370.305	-50.97
370.52	-26.56
370.736	55.98
370.951	-7.18
371.166	61.21
371.381	55.4
371.597	43.38
371.812	-26.37
372.027	-20.75
372.242	-3.12
372.458	83.68
372.673	0.37
372.888	0.57
373.103	42.41
373.318	108.87
373.533	37.76
373.749	21.88
373.964	-10.67
374.179	71.28
374.394	-6.41
374.609	70.9
374.824	-17.65
375.039	30.4
375.254	4.63
375.469	69.93
375.684	39.7
375.899	58.5
376.114	15.87
376.329	-5.44
376.544	40.09
376.759	41.83
376.974	2.5
377.189	14.51
377.404	-13.58
377.619	34.86
377.834	-40.7
378.049	-26.95
378.264	-25.01
378.478	8.7
378.693	-5.05
378.908	16.65
379.123	-32.37
379.338	46.87
379.553	23.62
379.767	13.74
379.982	16.84
380.197	42.41
380.412	0.57
380.626	10.64
380.841	87.17
381.056	23.23
381.271	74
381.485	-23.46
381.7	-25.98
381.915	40.48
382.129	-17.65
382.344	18.2
382.559	4.25
382.773	28.27
382.988	-25.59
383.202	22.46
383.417	-12.03
383.632	77.48
383.846	21.1
384.061	15.29
384.275	-13.77
384.49	27.3
384.704	41.45
384.919	16.26
385.133	23.04
385.348	40.48
385.562	-26.37
385.777	29.82
385.991	30.98
386.206	3.08
386.42	-12.22
386.634	35.25
386.849	40.48
387.063	3.28
387.277	-13.97
387.492	-1.95
387.706	-25.01
387.92	-0.21
388.135	52.88
388.349	23.81
388.563	6.18
388.778	18.2
388.992	27.11
389.206	41.25
389.42	81.75
389.635	6.96
389.849	24.98
390.063	47.26
390.277	40.09
390.491	54.23
390.706	27.5
390.92	26.14
391.134	21.68
391.348	59.08
391.562	-24.04
391.776	10.64
391.99	-12.61
392.205	50.75
392.419	-22.3
392.633	23.23
392.847	47.26
393.061	-1.37
393.275	48.81
393.489	28.66
393.703	37.18
393.917	53.46
394.131	-7.18
394.345	49
394.559	41.64
394.773	13.35
394.986	22.46
395.2	18.97
395.414	43.19
395.628	4.05
395.842	15.68
396.056	12.38
396.27	-33.73
396.484	44.55
396.697	35.83
396.911	49.39
397.125	57.53
397.339	51.52
397.553	39.7
397.766	92.4
397.98	52.49
398.194	45.13
398.408	27.88
398.621	36.21
398.835	50.36
399.049	25.17
399.262	29.82
399.476	58.3
399.69	36.41
399.903	91.82
400.117	11.41
400.331	39.12
400.544	12.38
400.758	102.28
400.971	27.88
401.185	46.1
401.398	-5.05
401.612	60.82
401.826	57.72
402.039	51.52
402.253	0.57
402.466	63.34
402.68	-6.6
402.893	23.81
403.106	34.86
403.32	18.39
403.533	26.33
403.747	2.12
403.96	34.47
404.174	29.05
404.387	-22.3
404.6	18
404.814	71.09
405.027	23.43
405.24	23.04
405.454	-4.67
405.667	63.73
405.88	-5.63
406.094	14.9
406.307	64.11
406.52	39.31
406.733	7.54
406.947	-19
407.16	69.73
407.373	72.64
407.586	-2.15
407.799	20.52
408.012	35.63
408.226	34.47
408.439	92.98
408.652	-3.5
408.865	35.83
409.078	67.6
409.291	22.46
409.504	-12.8
409.717	37.38
409.93	43.58
410.143	27.88
410.357	-16.87
410.57	5.6
410.783	15.48
410.996	6.38
411.209	24.98
411.421	55.98
411.634	16.26
411.847	10.83
412.06	48.61
412.273	-13.58
412.486	30.79
412.699	128.24
412.912	31.76
413.125	50.94
413.338	14.51
413.55	44.16
413.763	4.25
413.976	37.76
414.189	8.51
414.402	33.11
414.615	80.58
414.827	12.19
415.04	56.75
415.253	54.43
415.466	53.65
415.678	97.05
415.891	29.24
416.104	9.67
416.316	32.53
416.529	2.7
416.742	67.21
416.954	63.34
417.167	25.17
417.38	31.37
417.592	69.15
417.805	18
418.017	-3.89
418.23	62.56
418.442	25.56
418.655	16.06
418.868	71.86
419.08	60.82
419.293	52.68
419.505	42.22
419.718	26.91
419.93	56.95
420.142	36.6
420.355	91.63
420.567	81.16
420.78	62.37
420.992	41.45
421.205	90.66
421.417	-19
421.629	10.45
421.842	5.6
422.054	-13.97
422.266	54.43
422.479	74.77
422.691	17.61
422.903	59.08
423.115	35.63
423.328	14.32
423.54	54.81
423.752	14.51
423.964	3.47
424.177	21.3
424.389	14.71
424.601	140.84
424.813	60.43
425.025	74.58
425.238	67.8
425.45	35.25
425.662	26.33
425.874	310.37
426.086	1.73
426.298	57.91
426.51	49.97
426.722	52.88
426.934	27.5
427.146	68.18
427.358	-10.48
427.57	64.11
427.782	12.96
427.994	29.43
428.206	42.03
428.418	-15.13
428.63	57.53
428.842	83.3
429.054	40.28
429.266	80.2
429.478	23.43
429.69	38.35
429.902	-22.88
430.114	75.74
430.325	67.8
430.537	29.24
430.749	47.26
430.961	-13.58
431.173	57.14
431.384	77.68
431.596	-32.18
431.808	19.94
432.02	49.58
432.231	57.72
432.443	70.9
432.655	44.74
432.867	8.31
433.078	60.05
433.29	84.07
433.502	43.38
433.713	78.84
433.925	32.15
434.136	81.36
434.348	4.83
434.56	-7.18
434.771	135.03
434.983	-0.21
435.194	19.75
435.406	27.11
435.617	67.21
435.829	92.4
436.04	85.23
436.252	80.78
436.463	91.24
436.675	62.37
436.886	43.58
437.098	42.22
437.309	84.07
437.521	24.4
437.732	58.3
437.943	39.51
438.155	55.01
438.366	-31.02
438.578	102.86
438.789	49
439	75.35
439.211	21.68
439.423	91.43
439.634	48.23
439.845	76.32
440.057	44.55
440.268	72.64
440.479	31.76
440.69	66.83
440.902	48.23
441.113	40.09
441.324	0.95
441.535	66.44
441.746	92.98
441.957	21.88
442.168	49.2
442.38	63.15
442.591	57.14
442.802	33.11
443.013	32.15
443.224	48.81
443.435	41.83
443.646	40.67
443.857	68.18
444.068	32.92
444.279	35.05
444.49	105.96
444.701	45.9
444.912	121.46
445.123	73.8
445.334	65.86
445.545	50.94
445.756	24.4
445.967	48.23
446.178	90.46
446.388	96.86
446.599	121.85
446.81	86.78
447.021	45.9
447.232	51.33
447.443	108.87
447.653	26.91
447.864	99.18
448.075	67.02
448.286	92.01
448.496	73.8
448.707	92.4
448.918	34.47
449.129	137.16
449.339	34.08
449.55	67.21
449.761	73.03
449.971	111.19
450.182	65.66
450.393	68.96
450.603	55.4
450.814	100.15
451.024	59.85
451.235	108.29
451.446	99.96
451.656	120.88
451.867	57.14
452.077	92.4
452.288	121.85
452.498	106.54
452.709	57.53
452.919	107.13
453.13	66.25
453.34	101.12
453.55	22.85
453.761	115.07
453.971	103.06
454.182	105.77
454.392	99.96
454.602	149.36
454.813	94.34
455.023	104.99
455.233	28.46
455.444	59.08
455.654	24.4
455.864	59.27
456.075	67.02
456.285	71.67
456.495	71.86
456.705	75.55
456.916	127.08
457.126	103.06
457.336	72.64
457.546	33.5
457.756	54.04
457.967	97.24
458.177	74
458.387	89.69
458.597	62.95
458.807	73.8
459.017	74.96
459.227	69.35
459.437	59.27
459.647	98.99
459.857	88.91
460.068	54.81
460.278	118.75
460.488	79.42
460.698	140.64
460.908	69.93
461.117	37.57
461.327	43.19
461.537	75.74
461.747	79.03
461.957	87.95
462.167	162.34
462.377	133.28
462.587	85.62
462.797	94.53
463.007	72.25
463.216	90.27
463.426	113.52
463.636	104.41
463.846	36.8
464.056	90.66
464.265	131.54
464.475	60.43
464.685	85.62
464.895	148.98
465.104	84.46
465.314	109.26
465.524	82.71
465.733	86.59
465.943	134.83
466.153	170.29
466.362	110.23
466.572	97.24
466.782	59.27
466.991	88.91
467.201	179.98
467.41	31.56
467.62	115.46
467.829	102.09
468.039	114.49
468.249	88.14
468.458	93.56
468.668	111
468.877	118.75
469.086	157.11
469.296	114.88
469.505	66.83
469.715	171.45
469.924	127.28
470.134	132.31
470.343	151.88
470.552	106.35
470.762	106.74
470.971	66.83
471.18	103.64
471.39	98.41
471.599	87.36
471.808	92.98
472.018	75.16
472.227	129.02
472.436	140.45
472.645	93.95
472.855	76.71
473.064	119.91
473.273	105.58
473.482	115.26
473.691	128.44
473.901	112.55
474.11	72.64
474.319	146.26
474.528	80
474.737	147.81
474.946	114.29
475.155	88.14
475.364	145.49
475.573	98.41
475.783	110.61
475.992	144.91
476.201	172.61
476.41	104.99
476.619	76.51
476.828	130.96
477.037	94.15
477.245	129.79
477.454	157.5
477.663	97.05
477.872	114.49
478.081	178.23
478.29	112.16
478.499	190.05
478.708	107.13
478.917	158.66
479.125	125.34
479.334	152.08
479.543	102.28
479.752	103.25
479.961	111.39
480.169	149.36
480.378	95.5
480.587	200.32
480.796	123.98
481.004	142.19
481.213	147.23
481.422	127.86
481.63	138.9
481.839	160.79
482.048	154.59
482.256	140.64
482.465	125.14
482.674	142.58
482.882	171.45
483.091	181.91
483.299	126.69
483.508	183.46
483.716	116.04
483.925	143.55
484.134	105.77
484.342	147.43
484.551	149.75
484.759	168.93
484.967	183.85
485.176	191.79
485.384	151.11
485.593	178.23
485.801	166.41
486.01	171.45
486.218	137.93
486.426	123.01
486.635	163.31
486.843	131.34
487.051	154.4
487.26	146.65
487.468	177.84
487.676	177.84
487.885	151.3
488.093	126.5
488.301	158.28
488.509	175.91
488.717	189.08
488.926	169.13
489.134	170.68
489.342	152.46
489.55	158.28
489.758	175.13
489.967	129.6
490.175	236.74
490.383	103.44
490.591	211.94
490.799	99.38
491.007	173.78
491.215	151.69
491.423	135.03
491.631	184.62
491.839	147.81
492.047	185.4
492.255	162.34
492.463	114.88
492.671	166.99
492.879	198.38
493.087	175.13
493.295	177.84
493.503	201.29
493.711	179.78
493.919	221.63
494.127	198.19
494.334	234.03
494.542	140.84
494.75	187.14
494.958	175.71
495.166	203.81
495.374	175.52
495.581	174.36
495.789	178.23
495.997	246.62
496.205	161.76
496.412	167.58
496.62	184.24
496.828	197.99
497.035	193.15
497.243	213.88
497.451	174.16
497.658	190.24
497.866	177.26
498.074	244.11
498.281	157.89
498.489	300.1
498.696	207.49
498.904	186.95
499.112	167.38
499.319	260.77
499.527	185.98
499.734	223.57
499.942	143.94
500.149	153.43
500.357	191.99
500.564	167.38
500.771	187.53
500.979	189.47
501.186	204
501.394	224.34
501.601	207.1
501.808	225.51
502.016	207.29
502.223	187.53
502.43	235.19
502.638	201.87
502.845	184.43
503.052	253.99
503.26	196.06
503.467	264.45
503.674	223.57
503.881	216.98
504.089	276.65
504.296	246.62
504.503	173.97
504.71	253.99
504.917	199.54
505.125	196.83
505.332	209.04
505.539	225.12
505.746	280.53
505.953	248.17
506.16	235.19
506.367	266.58
506.574	259.8
506.781	264.64
506.988	180.75
507.195	228.8
507.402	195.47
507.609	263.48
507.816	245.85
508.023	232.09
508.23	226.67
508.437	181.53
508.644	227.83
508.851	282.85
509.058	250.5
509.265	257.67
509.472	249.92
509.679	303.97
509.885	232.67
510.092	240.81
510.299	250.5
510.506	244.3
510.713	243.91
510.92	252.82
511.126	272.97
511.333	288.47
511.54	259.22
511.746	305.14
511.953	263.48
512.16	289.05
512.367	253.21
512.573	279.37
512.78	274.91
512.987	238.49
513.193	273.36
513.4	217.56
513.606	237.32
513.813	263.29
514.02	274.14
514.226	336.14
514.433	322.77
514.639	225.89
514.846	219.5
515.052	244.69
515.259	284.6
515.465	275.69
515.672	265.22
515.878	329.55
516.085	256.12
516.291	295.84
516.497	259.61
516.704	258.25
516.91	266
517.117	247.79
517.323	218.92
517.529	284.6
517.736	258.83
517.942	281.11
518.148	264.45
518.354	263.67
518.561	290.41
518.767	263.29
518.973	314.63
519.179	323.93
519.386	272.59
519.592	285.95
519.798	261.93
520.004	333.42
520.21	279.95
520.417	311.34
520.623	338.27
520.829	329.94
521.035	323.93
521.241	314.63
521.447	323.74
521.653	400.65
521.859	276.27
522.065	344.27
522.271	411.5
522.477	353.77
522.683	371.01
522.889	372.75
523.095	361.71
523.301	383.41
523.507	318.5
523.713	337.1
523.919	340.4
524.125	379.15
524.331	347.37
524.537	398.91
524.742	374.69
524.948	408.4
525.154	375.85
525.36	491.13
525.566	374.69
525.772	441.15
525.977	359.38
526.183	399.68
526.389	427.97
526.595	381.08
526.8	381.08
527.006	346.99
527.212	341.95
527.417	349.31
527.623	331.29
527.829	395.42
528.034	407.82
528.24	401.43
528.446	352.8
528.651	402.2
528.857	439.79
529.062	426.42
529.268	375.47
529.473	386.7
529.679	409.18
529.884	434.37
530.09	445.8
530.295	474.66
530.501	473.31
530.706	464.59
530.912	427.2
531.117	400.46
531.323	434.17
531.528	428.75
531.733	463.62
531.939	408.6
532.144	467.3
532.35	435.72
532.555	478.73
532.76	462.85
532.966	502.76
533.171	472.73
533.376	439.98
533.581	425.26
533.787	439.6
533.992	474.08
534.197	504.11
534.402	453.55
534.607	464.2
534.813	541.51
535.018	429.72
535.223	414.22
535.428	445.99
535.633	496.17
535.838	468.08
536.043	463.62
536.249	508.96
536.454	452.38
536.659	462.26
536.864	449.28
537.069	436.88
537.274	500.63
537.479	527.56
537.684	473.89
537.889	455.87
538.094	556.23
538.299	484.35
538.504	487.65
538.708	483.58
538.913	474.86
539.118	464.2
539.323	526.98
539.528	463.43
539.733	492.68
539.938	494.43
540.142	488.23
540.347	465.17
540.552	494.04
540.757	482.22
540.962	505.66
541.166	453.74
541.371	438.82
541.576	497.33
541.781	379.15
541.985	496.56
542.19	489.78
542.395	521.94
542.599	562.82
542.804	544.99
543.008	553.91
543.213	475.44
543.418	473.11
543.622	532.79
543.827	467.88
544.031	547.9
544.236	562.24
544.44	505.47
544.645	563.59
544.849	483.77
545.054	527.17
545.258	585.1
545.463	570.38
545.667	505.47
545.872	526.4
546.076	520.39
546.281	549.06
546.485	487.26
546.689	551.39
546.894	563.4
547.098	512.06
547.302	482.03
547.507	519.23
547.711	513.41
547.915	582.78
548.119	506.44
548.324	531.24
548.528	574.06
548.732	553.13
548.936	542.67
549.141	555.26
549.345	508.76
549.549	527.95
549.753	525.81
549.957	603.31
550.161	597.69
550.366	549.45
550.57	496.56
550.774	537.05
550.978	510.12
551.182	564.37
551.386	536.08
551.59	537.63
551.794	519.81
551.998	538.79
552.202	520.78
552.406	484.55
552.61	548.09
552.814	541.12
553.018	611.06
553.222	538.6
553.426	515.74
553.63	590.91
553.833	522.33
554.037	491.52
554.241	567.86
554.445	535.69
554.649	554.68
554.853	524.07
555.056	563.79
555.26	582
555.464	550.61
555.668	550.42
555.871	558.36
556.075	567.47
556.279	513.61
556.483	485.32
556.686	538.6
556.89	544.22
557.094	589.94
557.297	500.63
557.501	563.79
557.704	507.6
557.908	549.06
558.112	498.11
558.315	599.63
558.519	557.2
558.722	568.44
558.926	525.04
559.129	505.86
559.333	471.37
559.536	500.63
559.74	500.63
559.943	510.7
560.147	480.86
560.35	529.88
560.553	492.88
560.757	446.18
560.96	544.8
561.164	480.48
561.367	558.94
561.57	520.97
561.774	535.31
561.977	513.41
562.18	506.83
562.384	580.26
562.587	489
562.79	484.35
562.993	485.32
563.197	560.3
563.4	581.23
563.603	533.56
563.806	581.23
564.009	485.71
564.212	520.78
564.416	472.73
564.619	498.5
564.822	490.55
565.025	533.37
565.228	469.63
565.431	497.53
565.634	425.26
565.837	459.75
566.04	473.11
566.243	479.31
566.446	378.57
566.649	513.03
566.852	435.33
567.055	478.35
567.258	517.1
567.461	533.37
567.664	514.38
567.867	407.82
568.07	475.83
568.273	466.72
568.475	522.33
568.678	454.71
568.881	466.72
569.084	472.53
569.287	397.36
569.489	402.59
569.692	491.71
569.895	471.37
570.098	415.57
570.3	409.57
570.503	399.3
570.706	396.78
570.909	399.1
571.111	364.42
571.314	406.47
571.516	422.74
571.719	439.02
571.922	407.43
572.124	414.41
572.327	409.37
572.529	354.54
572.732	376.05
572.935	411.5
573.137	453.74
573.34	387.28
573.542	427.39
573.745	430.3
573.947	408.79
574.15	418.48
574.352	370.62
574.554	449.48
574.757	382.63
574.959	389.61
575.162	366.94
575.364	377.98
575.566	494.23
575.769	367.13
575.971	406.27
576.173	340.59
576.376	371.59
576.578	392.9
576.78	447.15
576.982	352.6
577.185	386.12
577.387	347.57
577.589	361.32
577.791	390.77
577.993	400.85
578.196	355.7
578.398	397.94
578.6	429.52
578.802	357.45
579.004	355.51
579.206	352.22
579.408	374.5
579.61	357.06
579.812	386.12
580.014	367.91
580.216	340.98
580.418	397.36
580.62	344.08
580.822	326.64
581.024	352.6
581.226	393.48
581.428	357.45
581.63	433.2
581.832	321.41
582.034	408.4
582.236	350.47
582.438	367.72
582.64	402.98
582.841	411.89
583.043	434.17
583.245	392.13
583.447	382.44
583.649	357.64
583.85	345.44
584.052	396.2
584.254	358.03
584.456	384.18
584.657	334.78
584.859	344.66
585.061	351.05
585.262	327.61
585.464	329.35
585.666	396
585.867	340.2
586.069	438.82
586.27	372.95
586.472	359.97
586.674	352.22
586.875	309.98
587.077	326.84
587.278	341.75
587.48	339.43
587.681	449.28
587.883	370.23
588.084	310.37
588.285	334.39
588.487	362.29
588.688	363.65
588.89	362.87
589.091	315.02
589.292	323.93
589.494	324.32
589.695	323.15
589.896	278.98
590.098	274.91
590.299	332.45
590.5	298.35
590.702	282.47
590.903	331.1
591.104	351.05
591.305	306.88
591.507	380.5
591.708	363.26
591.909	309.4
592.11	396.2
592.311	353.38
592.512	329.55
592.714	294.87
592.915	292.93
593.116	292.93
593.317	303.39
593.518	330.32
593.719	288.67
593.92	368.88
594.121	386.51
594.322	347.37
594.523	323.93
594.724	286.54
594.925	326.84
595.126	338.65
595.327	347.57
595.528	337.69
595.729	336.14
595.929	304.94
596.13	333.62
596.331	320.83
596.532	349.5
596.733	372.75
596.934	352.02
597.135	346.4
597.335	315.21
597.536	277.82
597.737	330.71
597.938	319.67
598.138	355.51
598.339	334.97
598.54	308.62
598.74	312.69
598.941	335.75
599.142	354.74
599.342	314.44
599.543	315.21
599.744	287.89
599.944	317.15
600.145	315.4
600.345	299.71
600.546	399.49
600.746	369.65
600.947	395.03
601.147	343.11
601.348	352.22
601.548	297.77
601.749	323.93
601.949	304.17
602.15	318.5
602.35	334
602.551	372.37
602.751	296.61
602.951	307.27
603.152	264.26
603.352	333.42
603.552	307.07
603.753	340.98
603.953	327.61
604.153	328.97
604.354	310.95
604.554	335.55
604.754	298.74
604.954	287.89
605.155	329.55
605.355	317.54
605.555	354.54
605.755	373.33
605.955	321.02
606.155	340.98
606.356	298.55
606.556	325.87
606.756	302.81
606.956	254.37
607.156	387.87
607.356	278.79
607.556	332.65
607.756	361.32
607.956	365.78
608.156	324.51
608.356	308.62
608.556	353.77
608.756	330.9
608.956	275.88
609.156	328
609.356	267.74
609.556	287.5
609.755	318.5
609.955	288.09
610.155	334.2
610.355	329.16
610.555	300.1
610.755	319.86
610.954	273.94
611.154	295.25
611.354	331.49
611.554	282.27
611.753	303.2
611.953	267.94
612.153	287.89
612.352	304.55
612.552	290.02
612.752	234.61
612.951	269.87
613.151	306.49
613.351	277.43
613.55	268.13
613.75	310.95
613.949	329.55
614.149	304.55
614.348	314.63
614.548	273.55
614.747	238.68
614.947	276.46
615.146	246.24
615.346	310.37
615.545	284.79
615.745	290.02
615.944	304.17
616.144	272.39
616.343	319.86
616.542	279.37
616.742	299.13
616.941	269.1
617.14	244.49
617.34	282.08
617.539	269.68
617.738	251.47
617.938	334.39
618.137	253.79
618.336	245.66
618.535	308.62
618.734	263.09
618.934	301.07
619.133	295.06
619.332	278.59
619.531	268.13
619.73	249.34
619.929	321.22
620.128	296.22
620.328	343.5
620.527	276.46
620.726	258.25
620.925	295.45
621.124	257.47
621.323	304.36
621.522	226.47
621.721	217.95
621.92	238.29
622.119	293.12
622.318	255.15
622.517	262.9
622.715	266.77
622.914	231.32
623.113	242.75
623.312	222.6
623.511	271.04
623.71	238.87
623.909	238.87
624.107	332.65
624.306	223.76
624.505	236.74
624.704	238.1
624.902	239.84
625.101	305.14
625.3	252.82
625.499	243.52
625.697	239.26
625.896	233.06
626.095	265.22
626.293	227.83
626.492	233.84
626.69	277.62
626.889	207.29
627.088	252.82
627.286	233.64
627.485	215.62
627.683	226.47
627.882	284.4
628.08	222.21
628.279	217.17
628.477	301.65
628.676	248.95
628.874	270.45
629.073	248.95
629.271	210.78
629.469	237.91
629.668	214.07
629.866	251.86
630.065	216.4
630.263	261.74
630.461	198.57
630.66	237.13
630.858	256.31
631.056	280.34
631.254	262.9
631.453	208.26
631.651	254.18
631.849	248.76
632.047	267.55
632.245	204.77
632.444	255.15
632.642	240.04
632.84	234.42
633.038	220.66
633.236	231.32
633.434	195.09
633.632	192.57
633.83	203.61
634.028	250.11
634.227	228.8
634.425	301.45
634.623	247.01
634.821	247.98
635.019	213.49
635.216	207.49
635.414	248.17
635.612	227.83
635.81	229.57
636.008	279.75
636.206	218.92
636.404	221.05
636.602	204.58
636.8	229.77
636.997	240.42
637.195	253.02
637.393	243.14
637.591	278.59
637.789	229.77
637.986	205.36
638.184	247.59
638.382	259.41
638.58	247.98
638.777	297.97
638.975	211.36
639.173	249.14
639.37	237.71
639.568	253.99
639.765	248.37
639.963	225.7
640.161	264.45
640.358	286.34
640.556	205.94
640.753	202.06
640.951	220.66
641.148	219.11
641.346	203.22
641.543	246.62
641.741	265.42
641.938	204.19
642.136	221.05
642.333	196.44
642.531	252.44
642.728	289.44
642.925	207.49
643.123	208.26
643.32	267.94
643.517	229.19
643.715	242.17
643.912	203.22
644.109	253.21
644.306	221.05
644.504	205.55
644.701	196.25
644.898	227.25
645.095	205.94
645.293	222.41
645.49	226.86
645.687	229.96
645.884	254.76
646.081	196.06
646.278	211.17
646.475	197.8
646.672	201.67
646.87	251.08
647.067	254.96
647.264	225.51
647.461	190.05
647.658	164.67
647.855	228.41
648.052	195.67
648.249	148.98
648.446	190.44
648.642	180.56
648.839	186.17
649.036	172.23
649.233	168.35
649.43	171.06
649.627	158.08
649.824	194.7
650.021	181.53
650.217	168.93
650.414	159.24
650.611	196.06
650.808	221.44
651.004	176.29
651.201	230.74
651.398	232.87
651.595	196.06
651.791	184.04
651.988	223.76
652.185	168.54
652.381	219.31
652.578	160.79
652.775	210.97
652.971	183.46
653.168	180.75
653.364	193.15
653.561	143.74
653.757	170.29
653.954	192.57
654.15	184.24
654.347	238.87
654.543	204
654.74	161.57
654.936	148.01
655.133	182.49
655.329	193.54
655.525	180.17
655.722	234.81
655.918	175.33
656.115	215.43
656.311	166.22
656.507	157.11
656.704	106.35
656.9	144.91
657.096	158.47
657.292	149.17
657.489	189.08
657.685	199.74
657.881	146.46
658.077	160.21
658.273	165.06
658.47	214.27
658.666	171.06
658.862	197.22
659.058	143.74
659.254	208.46
659.45	170.87
659.646	178.23
659.842	160.99
660.038	213.3
660.234	152.08
660.43	162.54
660.626	241.97
660.822	207.1
661.018	204.97
661.214	201.29
661.41	163.89
661.606	194.51
661.802	212.14
661.998	169.32
662.194	135.8
662.39	186.37
662.586	178.62
662.781	193.92
662.977	204.39
663.173	215.62
663.369	181.14
663.564	211.17
663.76	194.7
663.956	166.03
664.152	216.59
664.347	138.32
664.543	181.33
664.739	186.17
664.934	148.59
665.13	135.8
665.326	204.19
665.521	183.85
665.717	141.81
665.912	141.23
666.108	123.01
666.304	155.18
666.499	169.32
666.695	120.88
666.89	136.58
667.086	207.87
667.281	194.51
667.477	217.37
667.672	193.15
667.867	174.74
668.063	164.09
668.258	150.91
668.454	157.89
668.649	243.72
668.844	180.17
669.04	185.98
669.235	158.08
669.43	136.77
669.626	130.57
669.821	157.11
670.016	123.59
670.211	147.62
670.407	130.76
670.602	170.09
670.797	163.12
670.992	172.81
671.187	144.71
671.382	195.28
671.578	149.75
671.773	186.76
671.968	141.61
672.163	160.99
672.358	156.92
672.553	123.01
672.748	117.78
672.943	204.19
673.138	151.11
673.333	187.53
673.528	128.83
673.723	153.63
673.918	177.65
674.113	111.97
674.308	209.81
674.503	163.31
674.698	171.45
674.892	197.8
675.087	178.04
675.282	173.58
675.477	172.81
675.672	154.79
675.867	141.03
676.061	102.28
676.256	113.13
676.451	130.76
676.646	134.25
676.84	132.7
677.035	119.33
677.23	132.7
677.424	141.03
677.619	166.03
677.814	181.33
678.008	202.64
678.203	86.4
678.397	125.14
678.592	157.11
678.787	180.36
678.981	162.73
679.176	159.05
679.37	175.71
679.565	120.11
679.759	109.64
679.954	173.78
680.148	200.12
680.342	220.27
680.537	173.19
680.731	130.96
680.926	176.29
681.12	173.19
681.314	154.59
681.509	140.84
681.703	183.27
681.897	155.37
682.092	140.26
682.286	142.39
682.48	223.96
682.674	195.09
682.869	160.02
683.063	148.01
683.257	237.71
683.451	143.94
683.645	140.06
683.839	174.55
684.034	155.37
684.228	200.51
684.422	117.01
684.616	135.22
684.81	166.61
685.004	166.61
685.198	150.33
685.392	174.16
685.586	124.95
685.78	168.16
685.974	171.45
686.168	190.05
686.362	217.76
686.556	167.38
686.75	125.73
686.944	156.14
687.138	202.26
687.331	113.71
687.525	173.39
687.719	103.44
687.913	127.08
688.107	137.74
688.301	128.24
688.494	183.07
688.688	119.72
688.882	85.81
689.076	101.51
689.269	136.58
689.463	193.92
689.657	125.53
689.85	130.18
690.044	137.35
690.238	121.46
690.431	143.94
690.625	114.49
690.818	140.64
691.012	144.71
691.205	153.63
691.399	114.88
691.593	170.68
691.786	201.87
691.98	179.59
692.173	204.97
692.366	156.34
692.56	176.1
692.753	225.89
692.947	140.26
693.14	215.82
693.333	222.79
693.527	158.47
693.72	202.84
693.914	141.61
694.107	184.04
694.3	146.26
694.493	181.33
694.687	206.13
694.88	171.06
695.073	234.03
695.266	197.8
695.46	202.45
695.653	248.76
695.846	214.07
696.039	155.37
696.232	173
696.425	216.98
696.618	228.99
696.812	206.32
697.005	262.12
697.198	309.98
697.391	213.88
697.584	240.42
697.777	282.66
697.97	253.02
698.163	275.88
698.356	256.31
698.549	329.55
698.742	276.27
698.935	259.02
699.127	295.06
699.32	264.06
699.513	249.92
699.706	285.37
699.899	284.6
700.092	290.41
700.285	293.32
700.477	282.85
700.67	290.6
700.863	322.96
701.056	367.91
701.248	339.43
701.441	347.76
701.634	315.4
701.826	412.47
702.019	284.79
702.212	361.32
702.404	330.52
702.597	327.61
702.79	338.65
702.982	333.04
703.175	378.76
703.367	350.09
703.56	397.17
703.752	466.53
703.945	390.38
704.137	415.18
704.33	432.43
704.522	437.85
704.715	402.98
704.907	451.03
705.1	439.4
705.292	459.55
705.484	424.1
705.677	438.05
705.869	460.33
706.061	473.89
706.254	521.55
706.446	481.64
706.638	445.21
706.831	538.21
707.023	494.04
707.215	559.53
707.407	543.44
707.599	540.54
707.792	532.79
707.984	541.7
708.176	582.97
708.368	547.13
708.56	584.13
708.752	547.13
708.944	578.9
709.136	590.72
709.329	564.76
709.521	663.96
709.713	631.6
709.905	627.34
710.097	661.63
710.289	606.41
710.481	614.16
710.672	655.04
710.864	652.72
711.056	668.22
711.248	699.99
711.44	695.73
711.632	659.11
711.824	663.18
712.016	748.82
712.207	742.81
712.399	735.06
712.591	777.1
712.783	759.09
712.975	778.85
713.166	740.29
713.358	731.38
713.55	797.45
713.741	802.87
713.933	817.21
714.125	784.27
714.316	751.53
714.508	830.58
714.7	844.92
714.891	822.83
715.083	852.08
715.274	865.65
715.466	848.02
715.657	873.98
715.849	793.57
716.04	835.62
716.232	809.27
716.423	868.17
716.615	848.98
716.806	829.8
716.998	809.27
717.189	768.97
717.381	749.98
717.572	716.07
717.763	760.44
717.955	761.8
718.146	752.5
718.337	717.04
718.528	703.67
718.72	672.29
718.911	738.94
719.102	716.65
719.293	740.1
719.485	737
719.676	709.68
719.867	667.64
720.058	699.61
720.249	709.29
720.44	729.44
720.632	754.05
720.823	805.58
721.014	835.62
721.205	825.54
721.396	880.76
721.587	955.35
721.778	943.15
721.969	995.65
722.16	985.38
722.351	983.64
722.542	1053
722.733	1093.3
722.924	1039.05
723.115	1074.12
723.305	1076.44
723.496	1089.81
723.687	1022
723.878	1023.55
724.069	1040.99
724.26	1062.88
724.45	1024.71
724.641	975.69
724.832	1045.44
725.023	1036.14
725.213	1022.39
725.404	989.64
725.595	1016.96
725.785	1023.94
725.976	1056.68
726.167	1040.41
726.357	1070.24
726.548	1135.73
726.739	1074.7
726.929	1129.92
727.12	1157.24
727.31	1142.71
727.501	1139.99
727.691	1172.35
727.882	1152
728.072	1197.73
728.263	1165.37
728.453	1220.59
728.644	1206.06
728.834	1195.02
729.024	1174.29
729.215	1210.13
729.405	1210.52
729.596	1294.8
729.786	1266.7
729.976	1259.92
730.167	1272.32
730.357	1265.54
730.547	1267.48
730.737	1315.33
730.928	1362.03
731.118	1395.16
731.308	1307.78
731.498	1365.9
731.688	1399.03
731.879	1415.69
732.069	1447.86
732.259	1441.66
732.449	1451.34
732.639	1569.53
732.829	1548.8
733.019	1545.7
733.209	1616.22
733.399	1568.56
733.589	1702.83
733.779	1683.84
733.969	1639.67
734.159	1734.02
734.349	1787.3
734.539	1758.63
734.729	1797.18
734.919	1803.19
735.109	1843.88
735.299	1813.85
735.488	1841.36
735.678	1831.09
735.868	1841.16
736.058	1844.07
736.248	1811.13
736.437	1834.58
736.627	1810.55
736.817	1922.15
737.007	1852.59
737.196	1899.87
737.386	1876.62
737.576	1868.68
737.765	1937.84
737.955	1877.01
738.144	1983.18
738.334	1923.89
738.524	1897.35
738.713	1950.82
738.903	1955.86
739.092	2008.95
739.282	1981.44
739.471	2012.05
739.661	1978.14
739.85	2014.37
740.04	2037.82
740.229	2074.44
740.419	2078.5
740.608	2092.26
740.797	2114.93
740.987	2147.09
741.176	2128.1
741.365	2090.9
741.555	2077.73
741.744	2133.92
741.933	2156.97
742.123	2156.58
742.312	2169.57
742.501	2176.73
742.69	2215.29
742.88	2154.07
743.069	2247.84
743.258	2165.88
743.447	2270.12
743.636	2221.68
743.825	2221.1
744.014	2201.92
744.204	2269.93
744.393	2200.56
744.582	2312.16
744.771	2309.45
744.96	2266.83
745.149	2298.41
745.338	2280.78
745.527	2293.37
745.716	2248.42
745.905	2299.18
746.094	2339.68
746.283	2318.75
746.471	2332.51
746.66	2387.14
746.849	2343.55
747.038	2392.96
747.227	2290.46
747.416	2368.74
747.604	2288.53
747.793	2313.33
747.982	2335.41
748.171	2334.06
748.359	2382.69
748.548	2342.97
748.737	2347.81
748.926	2360.79
749.114	2289.88
749.303	2352.85
749.491	2319.33
749.68	2294.34
749.869	2407.29
750.057	2350.14
750.246	2311.39
750.434	2356.34
750.623	2329.02
750.811	2330.38
751	2374.36
751.188	2340.64
751.377	2351.3
751.565	2304.61
751.754	2290.08
751.942	2280.58
752.131	2367.38
752.319	2321.46
752.507	2280.97
752.696	2357.89
752.884	2376.49
753.072	2339.68
753.261	2343.74
753.449	2336.77
753.637	2326.31
753.825	2387.72
754.014	2319.91
754.202	2315.65
754.39	2404.19
754.578	2335.8
754.766	2329.21
754.955	2296.47
755.143	2380.36
755.331	2274.77
755.519	2320.88
755.707	2323.98
755.895	2304.8
756.083	2345.88
756.271	2300.34
756.459	2323.21
756.647	2351.49
756.835	2328.83
757.023	2275.93
757.211	2322.24
757.399	2281.55
757.587	2334.64
757.775	2243.58
757.963	2313.71
758.151	2271.48
758.339	2255.59
758.526	2276.13
758.714	2285.23
758.902	2201.92
759.09	2120.16
759.278	2024.06
759.465	1836.32
759.653	1597.04
759.841	1464.71
760.028	1245.78
760.216	1048.93
760.404	1006.11
760.591	842.78
760.779	695.92
760.967	611.45
761.154	455.48
761.342	552.55
761.529	517.1
761.717	575.8
761.905	510.9
762.092	570.57
762.28	550.03
762.467	546.93
762.655	509.73
762.842	526.59
763.029	525.43
763.217	538.21
763.404	538.79
763.592	587.81
763.779	515.93
763.966	550.23
764.154	578.32
764.341	645.94
764.528	604.86
764.716	663.57
764.903	692.63
765.09	732.74
765.277	790.86
765.465	897.23
765.652	947.8
765.839	1002.43
766.026	1074.89
766.213	1128.56
766.4	1227.95
766.588	1340.52
766.775	1324.63
766.962	1445.73
767.149	1451.15
767.336	1601.89
767.523	1521.29
767.71	1630.75
767.897	1734.8
768.084	1780.52
768.271	1778.58
768.458	1851.43
768.645	1891.54
768.832	1855.5
769.019	1850.66
769.206	1932.22
769.392	1959.54
769.579	2063.59
769.766	1988.8
769.953	1943.46
770.14	2060.29
770.327	2016.89
770.513	2078.7
770.7	2116.87
770.887	2041.5
771.073	2104.27
771.26	2120.35
771.447	2043.63
771.634	2032.59
771.82	2150.58
772.007	2072.5
772.193	2079.09
772.38	2092.84
772.567	2077.92
772.753	2087.8
772.94	2155.62
773.126	2155.81
773.313	2139.53
773.499	2114.15
773.686	2128.49
773.872	2097.3
774.059	2109.12
774.245	2080.83
774.432	2116.09
774.618	2016.7
774.804	2089.55
774.991	2063.78
775.177	2053.9
775.363	2079.86
775.55	2111.44
775.736	2029.87
775.922	2068.62
776.109	2071.14
776.295	2078.31
776.481	2078.31
776.667	2084.9
776.853	2044.02
777.04	2042.66
777.226	2034.91
777.412	2107.95
777.598	2029.87
777.784	2018.44
777.97	2028.32
778.156	2024.45
778.342	2023.29
778.528	2004.88
778.715	2001.78
778.901	1993.64
779.087	2046.54
779.272	1990.74
779.458	1944.24
779.644	1982.6
779.83	1956.64
780.016	2084.51
780.202	1995
780.388	1954.7
780.574	1902.78
780.76	1956.06
780.946	2012.63
781.131	1995.39
781.317	1961.67
781.503	1925.64
781.689	1974.46
781.874	2040.53
782.06	1914.21
782.246	1944.24
782.432	1922.73
782.617	1962.26
782.803	1971.17
782.989	1890.18
783.174	1899.48
783.36	1858.02
783.545	1893.67
783.731	1910.53
783.916	1840
784.102	1919.05
784.288	1857.05
784.473	1907.43
784.659	1855.11
784.844	1920.41
785.029	1839.42
785.215	1881.85
785.4	1833.61
785.586	1916.53
785.771	1839.23
785.956	1868.48
786.142	1846.39
786.327	1811.33
786.512	1800.86
786.698	1832.64
786.883	1781.3
787.068	1784.2
787.254	1827.6
787.439	1769.48
787.624	1798.54
787.809	1751.07
787.994	1778.58
788.18	1812.68
788.365	1734.22
788.55	1744.29
788.735	1769.86
788.92	1735.57
789.105	1723.95
789.29	1774.51
789.475	1705.15
789.66	1735.77
789.845	1716
790.03	1711.74
790.215	1733.44
790.4	1745.84
790.585	1750.3
790.77	1726.27
790.955	1654.59
791.14	1706.32
791.325	1777.23
791.51	1628.62
791.695	1679.97
791.879	1680.93
792.064	1677.45
792.249	1728.21
792.434	1684.81
792.618	1675.51
792.803	1722.78
792.988	1661.95
793.173	1690.62
793.357	1730.34
793.542	1691.78
793.727	1679.38
793.911	1709.03
794.096	1687.33
794.281	1721.82
794.465	1765.6
794.65	1687.13
794.834	1719.3
795.019	1766.57
795.203	1745.65
795.388	1748.75
795.572	1796.99
795.757	1719.1
795.941	1732.47
796.126	1733.83
796.31	1676.28
796.494	1702.83
796.679	1684.23
796.863	1714.45
797.048	1734.6
797.232	1737.7
797.416	1722.01
797.601	1712.52
797.785	1775.29
797.969	1767.15
798.153	1728.98
798.338	1719.3
798.522	1786.14
798.706	1780.52
798.89	1755.72
799.074	1846.39
799.258	1777.61
799.443	1727.24
799.627	1757.27
799.811	1816.17
799.995	1742.35
800.179	1723.75
800.363	1713.48
800.547	1757.27
800.731	1777.61
800.915	1706.51
801.099	1709.8
801.283	1739.25
801.467	1707.67
801.651	1720.27
801.835	1780.33
802.019	1731.7
802.202	1726.66
802.386	1671.25
802.57	1669.12
802.754	1700.12
802.938	1730.73
803.121	1700.31
803.305	1727.05
803.489	1708.06
803.673	1759.4
803.856	1765.41
804.04	1694.69
804.224	1735.18
804.407	1726.08
804.591	1698.76
804.775	1702.05
804.958	1716.39
805.142	1818.11
805.326	1733.05
805.509	1731.89
805.693	1770.64
805.876	1762.11
806.06	1741.19
806.243	1730.92
806.427	1772.77
806.61	1775.1
806.794	1738.67
806.977	1740.22
807.16	1728.98
807.344	1745.26
807.527	1723.17
807.71	1740.22
807.894	1775.68
808.077	1732.86
808.26	1722.78
808.444	1678.22
808.627	1771.61
808.81	1713.1
808.993	1659.04
809.177	1624.94
809.36	1711.35
809.543	1716.78
809.726	1663.11
809.909	1646.64
810.092	1606.73
810.276	1641.8
810.459	1657.3
810.642	1640.25
810.825	1581.54
811.008	1602.08
811.191	1506.76
811.374	1580.38
811.557	1586.19
811.74	1629.98
811.923	1519.35
812.106	1553.64
812.289	1443.59
812.472	1487.19
812.654	1494.74
812.837	1448.63
813.02	1456.96
813.203	1451.54
813.386	1320.95
813.569	1343.23
813.751	1297.7
813.934	1345.56
814.117	1345.56
814.3	1271.16
814.482	1269.42
814.665	1221.75
814.848	1234.54
815.03	1152
815.213	1155.88
815.396	1188.62
815.578	1157.24
815.761	1104.15
815.943	1172.93
816.126	1119.65
816.309	1070.82
816.491	1040.6
816.674	974.34
816.856	1038.28
817.039	1033.24
817.221	1127.98
817.403	1069.86
817.586	1074.89
817.768	1062.3
817.951	1009.41
818.133	981.31
818.315	1019.09
818.498	1064.82
818.68	1103.96
818.862	1092.33
819.045	1088.26
819.227	1125.07
819.409	1063.27
819.591	1128.37
819.774	1076.44
819.956	1046.22
820.138	1126.24
820.32	1130.11
820.502	1110.16
820.684	1161.5
820.866	1181.65
821.048	1235.9
821.231	1234.93
821.413	1227.57
821.595	1232.99
821.777	1194.24
821.959	1192.11
822.141	1295.77
822.323	1145.42
822.505	1102.21
822.686	1100.86
822.868	1051.45
823.05	939.66
823.232	952.06
823.414	909.63
823.596	950.12
823.778	933.85
823.96	975.5
824.141	967.56
824.323	1005.14
824.505	1054.16
824.687	1071.99
824.868	1084.77
825.05	1174.87
825.232	1203.15
825.413	1241.9
825.595	1208.19
825.777	1140.96
825.958	1193.85
826.14	1181.26
826.321	1221.95
826.503	1191.34
826.685	1202.19
826.866	1209.74
827.048	1209.35
827.229	1152.2
827.411	1128.17
827.592	1110.35
827.773	1135.15
827.955	1080.12
828.136	1079.35
828.318	1052.61
828.499	1091.36
828.68	1054.74
828.862	1048.93
829.043	1088.84
829.224	1083.81
829.406	1036.14
829.587	1053
829.768	1020.64
829.949	1051.45
830.131	1063.66
830.312	1105.7
830.493	1072.18
830.674	1101.05
830.855	1084.58
831.036	1053.97
831.218	1125.46
831.399	1131.86
831.58	1084.97
831.761	1099.5
831.942	1079.74
832.123	1089.81
832.304	1016.58
832.485	1057.26
832.666	1050.09
832.847	1071.41
833.028	1088.84
833.209	1103.37
833.389	1075.47
833.57	1041.96
833.751	1063.07
833.932	1070.24
834.113	1062.11
834.294	1076.06
834.475	1121.78
834.655	1112.48
834.836	1104.34
835.017	1100.27
835.198	1038.66
835.378	1111.9
835.559	1101.82
835.74	1077.8
835.92	1088.84
836.101	1047.38
836.281	1082.06
836.462	1094.85
836.643	1141.16
836.823	1180.29
837.004	1126.43
837.184	1150.45
837.365	1142.71
837.545	1135.92
837.726	1116.55
837.906	1163.24
838.087	1138.25
838.267	1109.38
838.448	1099.11
838.628	1144.45
838.808	1134.76
838.989	1142.32
839.169	1103.18
839.349	1126.82
839.53	1144.84
839.71	1164.99
839.89	1143.09
840.07	1194.24
840.251	1147.16
840.431	1158.98
840.611	1143.67
840.791	1096.59
840.971	1125.66
841.151	1110.74
841.332	1114.22
841.512	1143.87
841.692	1069.86
841.872	1161.89
842.052	1088.65
842.232	1144.25
842.412	1072.57
842.592	1119.26
842.772	1132.63
842.952	1133.79
843.132	1105.12
843.312	1125.66
843.492	1086.91
843.672	1134.18
843.851	1057.26
844.031	1106.28
844.211	1073.92
844.391	1066.95
844.571	1100.47
844.751	1158.59
844.93	1125.07
845.11	1082.45
845.29	1092.33
845.47	1092.91
845.649	1116.36
845.829	1145.61
846.009	1083.81
846.188	1117.32
846.368	1069.08
846.547	1075.47
846.727	1111.12
846.907	1061.52
847.086	1070.24
847.266	1091.36
847.445	1078.57
847.625	1068.89
847.804	1043.51
847.984	1065.4
848.163	1069.47
848.343	1046.03
848.522	1081.67
848.701	1075.28
848.881	999.14
849.06	1052.03
849.239	1070.05
849.419	1058.81
849.598	995.46
849.777	1038.86
849.957	1017.93
850.136	971.43
850.315	971.43
850.494	957.48
850.674	980.54
850.853	1013.67
851.032	991.58
851.211	1059.97
851.39	1013.86
851.569	925.71
851.748	979.18
851.927	1004.56
852.107	1014.83
852.286	975.69
852.465	965.81
852.644	990.61
852.823	1003.79
853.002	994.68
853.181	969.88
853.359	1002.63
853.538	937.91
853.717	1005.53
853.896	917.18
854.075	900.33
854.254	880.18
854.433	860.8
854.611	905.95
854.79	810.04
854.969	884.83
855.148	895.29
855.327	857.12
855.505	877.47
855.684	855.96
855.863	898
856.041	875.53
856.22	933.65
856.399	874.37
856.577	980.73
856.756	918.35
856.934	1025.68
857.113	1022.58
857.291	957.29
857.47	914.86
857.648	957.29
857.827	975.69
858.005	991.78
858.184	892.77
858.362	1045.44
858.541	961.36
858.719	946.44
858.898	963.1
859.076	925.71
859.254	1006.69
859.433	970.08
859.611	925.71
859.789	881.92
859.967	954.58
860.146	1003.59
860.324	896.84
860.502	920.67
860.68	890.45
860.859	901.3
861.037	925.51
861.215	923.38
861.393	919.31
861.571	919.12
861.749	892
861.927	917.18
862.105	938.11
862.283	917.38
862.461	893.16
862.639	892
862.817	888.51
862.995	886.76
863.173	877.27
863.351	878.63
863.529	904.2
863.707	962.71
863.885	908.85
864.063	812.37
864.241	857.51
864.418	910.21
864.596	856.93
864.774	855.96
864.952	887.35
865.129	878.24
865.307	854.8
865.485	797.83
865.663	879.4
865.84	792.8
866.018	847.63
866.196	728.47
866.373	782.14
866.551	726.34
866.728	704.45
866.906	728.09
867.084	755.02
867.261	803.26
867.439	778.65
867.616	817.6
867.794	812.75
867.971	797.25
868.149	793.19
868.326	872.62
868.503	837.55
868.681	827.87
868.858	772.07
869.035	779.04
869.213	819.73
869.39	807.33
869.567	868.55
869.745	786.02
869.922	822.63
870.099	847.05
870.276	849.37
870.454	845.3
870.631	837.94
870.808	799
870.985	848.79
871.162	862.74
871.339	823.02
871.517	774.2
871.694	786.6
871.871	793.38
872.048	792.99
872.225	790.09
872.402	821.28
872.579	769.55
872.756	806.36
872.933	776.33
873.11	761.6
873.287	780.2
873.463	773.62
873.64	773.62
873.817	778.46
873.994	767.22
874.171	749.01
874.348	778.46
874.524	710.26
874.701	777.88
874.878	714.72
875.055	777.88
875.231	746.49
875.408	782.34
875.585	706
875.762	760.64
875.938	748.62
876.115	760.44
876.291	732.15
876.468	711.42
876.645	715.1
876.821	706.19
876.998	710.65
877.174	714.52
877.351	715.1
877.527	713.94
877.704	745.52
877.88	723.05
878.057	690.11
878.233	786.79
878.409	710.84
878.586	708.71
878.762	689.72
878.938	731.57
879.115	671.71
879.291	700.19
879.467	684.69
879.644	702.51
879.82	725.57
879.996	679.65
880.172	631.6
880.349	677.52
880.525	695.73
880.701	660.08
880.877	678.29
881.053	710.26
881.229	679.07
881.405	728.86
881.581	660.86
881.757	691.66
881.933	678.49
882.109	708.32
882.285	674.61
882.461	663.57
882.637	672.29
882.813	654.07
882.989	656.01
883.165	699.61
883.341	654.66
883.517	708.71
883.693	679.26
883.869	691.86
884.044	684.11
884.22	688.76
884.396	718.4
884.572	674.61
884.747	690.31
884.923	713.75
885.099	708.13
885.275	695.15
885.45	664.92
885.626	691.27
885.801	667.06
885.977	660.27
886.153	610.09
886.328	664.54
886.504	681.39
886.679	701.16
886.855	647.49
887.03	696.31
887.206	695.92
887.381	684.88
887.557	684.3
887.732	689.14
887.908	690.89
888.083	694.37
888.258	661.44
888.434	669.96
888.609	656.98
888.784	703.09
888.96	664.92
889.135	663.76
889.31	643.81
889.485	651.75
889.661	683.52
889.836	677.13
890.011	682.75
890.186	654.07
890.361	652.91
890.537	662.02
890.712	704.26
890.887	692.82
891.062	695.15
891.237	720.34
891.412	636.83
891.587	685.85
891.762	687.01
891.937	725.57
892.112	626.95
892.287	653.49
892.462	633.54
892.637	614.16
892.812	603.51
892.987	613.39
893.161	600.79
893.336	602.34
893.511	601.57
893.686	628.69
893.861	601.18
894.035	603.51
894.21	613.39
894.385	569.6
894.56	588.2
894.734	537.24
894.909	551
895.084	548.68
895.258	551.78
895.433	557.01
895.608	534.14
895.782	483
895.957	515.93
896.131	481.25
896.306	473.11
896.48	468.66
896.655	466.33
896.829	448.12
897.004	424.68
897.178	430.3
897.353	447.93
897.527	463.62
897.701	434.95
897.876	370.23
898.05	479.7
898.224	452.58
898.399	461.88
898.573	445.99
898.747	377.98
898.921	425.26
899.096	362.68
899.27	365.39
899.444	329.35
899.618	382.05
899.792	408.98
899.967	361.52
900.141	410.34
900.315	353.96
900.489	361.52
900.663	406.85
900.837	368.88
901.011	334.97
901.185	405.3
901.359	403.75
901.533	410.92
901.707	365
901.881	388.64
902.055	353.38
902.229	380.89
902.403	420.22
902.576	383.22
902.75	394.45
902.924	491.52
903.098	454.51
903.272	451.8
903.446	470.6
903.619	464.59
903.793	477.96
903.967	484.55
904.14	494.62
904.314	519.03
904.488	447.35
904.661	545.19
904.835	475.44
905.009	539.96
905.182	526.4
905.356	534.53
905.529	490.36
905.703	447.73
905.876	451.03
906.05	465.95
906.223	446.76
906.397	396.2
906.57	374.5
906.744	390.38
906.917	386.51
907.09	383.02
907.264	366.75
907.437	350.09
907.61	354.15
907.784	355.51
907.957	371.2
908.13	340.4
908.304	396.2
908.477	322.38
908.65	324.32
908.823	321.41
908.996	397.94
909.17	324.7
909.343	351.25
909.516	348.15
909.689	337.1
909.862	311.34
910.035	341.37
910.208	306.1
910.381	322.96
910.554	413.05
910.727	337.3
910.9	322.57
911.073	327.22
911.246	405.88
911.419	370.82
911.592	345.82
911.765	305.33
911.938	317.34
912.11	338.07
912.283	339.24
912.456	378.57
912.629	345.05
912.802	344.27
912.974	273.75
913.147	259.8
913.32	224.34
913.493	289.64
913.665	286.54
913.838	283.24
914.01	289.64
914.183	286.92
914.356	257.09
914.528	321.22
914.701	358.22
914.873	342.92
915.046	288.47
915.218	263.87
915.391	230.35
915.563	242.17
915.736	303.2
915.908	318.7
916.081	285.95
916.253	278.4
916.425	294.29
916.598	298.55
916.77	290.6
916.942	255.54
917.115	223.57
917.287	298.55
917.459	266.77
917.632	226.09
917.804	219.11
917.976	291.19
918.148	264.26
918.32	283.24
918.493	288.47
918.665	329.74
918.837	275.49
919.009	332.07
919.181	347.57
919.353	315.79
919.525	328.19
919.697	329.16
919.869	302.04
920.041	321.41
920.213	404.72
920.385	373.14
920.557	309.59
920.729	324.12
920.901	311.92
921.073	291.38
921.244	302.04
921.416	333.23
921.588	322.57
921.76	288.86
921.932	371.98
922.103	300.68
922.275	328.77
922.447	297.77
922.619	275.69
922.79	290.99
922.962	288.09
923.134	325.67
923.305	263.67
923.477	243.33
923.648	240.62
923.82	262.32
923.991	241.59
924.163	222.41
924.335	261.54
924.506	234.61
924.677	317.15
924.849	238.1
925.02	245.46
925.192	305.52
925.363	264.64
925.535	270.26
925.706	253.6
925.877	296.42
926.049	249.34
926.22	275.88
926.391	279.75
926.562	290.22
926.734	240.81
926.905	290.8
927.076	203.03
927.247	224.73
927.419	227.44
927.59	211.17
927.761	217.76
927.932	216.4
928.103	228.02
928.274	188.5
928.445	193.34
928.616	175.52
928.787	166.41
928.958	214.07
929.129	168.16
929.3	180.36
929.471	145.49
929.642	152.08
929.813	66.44
929.984	160.79
930.155	90.08
930.326	132.51
930.496	101.89
930.667	73.61
930.838	121.46
931.009	62.76
931.18	87.56
931.35	69.54
931.521	95.11
931.692	66.63
931.863	24.01
932.033	71.28
932.204	86.01
932.374	113.52
932.545	20.33
932.716	92.6
932.886	96.66
933.057	16.45
933.227	38.93
933.398	125.14
933.568	22.26
933.739	30.6
933.909	9.09
934.08	78.65
934.25	-7.18
934.421	11.22
934.591	51.52
934.761	16.45
934.932	-16.48
935.102	24.2
935.272	16.65
935.443	38.15
935.613	8.12
935.783	30.98
935.953	-27.72
936.123	168.35
936.294	-7.38
936.464	-28.5
936.634	35.25
936.804	-23.46
936.974	-32.18
937.144	31.76
937.314	35.44
937.484	13.16
937.655	9.28
937.825	82.13
937.995	-22.1
938.165	49.58
938.334	2.89
938.504	36.6
938.674	4.25
938.844	22.46
939.014	73.61
939.184	71.09
939.354	112.36
939.524	88.91
939.694	41.64
939.863	55.4
940.033	94.34
940.203	82.71
940.373	51.13
940.542	63.53
940.712	61.6
940.882	66.44
941.051	86.59
941.221	57.91
941.391	86.2
941.56	38.73
941.73	17.23
941.899	144.71
942.069	31.76
942.238	68.57
942.408	54.43
942.577	83.68
942.747	66.25
942.916	34.08
943.086	22.65
943.255	86.78
943.425	59.46
943.594	30.79
943.763	-14.16
943.933	21.88
944.102	-9.9
944.271	41.83
944.441	50.36
944.61	7.73
944.779	47.65
944.948	134.06
945.117	10.64
945.287	34.47
945.456	-22.3
945.625	7.15
945.794	80
945.963	26.72
946.132	52.49
946.301	25.36
946.47	55.98
946.639	8.12
946.808	40.28
946.977	44.74
947.146	71.67
947.315	24.98
947.484	61.6
947.653	41.25
947.822	18
947.991	18.2
948.16	87.95
948.329	74.38
948.498	45.13
948.666	54.04
948.835	49.97
949.004	16.45
949.173	-7.38
949.341	44.74
949.51	54.62
949.679	67.02
949.847	72.25
950.016	107.9
950.185	88.72
950.353	5.02
950.522	37.96
950.69	73.8
950.859	23.04
951.028	60.82
951.196	43.38
951.365	13.93
951.533	16.45
951.701	73.41
951.87	90.27
952.038	25.56
952.207	55.4
952.375	99.57
952.543	26.53
952.712	50.55
952.88	-0.4
953.048	53.46
953.217	60.82
953.385	7.93
953.553	80.78
953.721	5.02
953.89	23.43
954.058	-16.29
954.226	54.62
954.394	43.77
954.562	6.96
954.73	22.65
954.898	19.75
955.067	78.65
955.235	5.41
955.403	68.57
955.571	88.53
955.739	62.76
955.907	17.42
956.075	23.04
956.243	10.45
956.41	17.81
956.578	25.36
956.746	19.75
956.914	27.11
957.082	74
957.25	64.7
957.418	12.58
957.585	27.69
957.753	70.9
957.921	-10.28
958.089	43
958.256	56.36
958.424	22.46
958.592	45.51
958.759	-16.1
958.927	81.36
959.095	21.1
959.262	25.95
959.43	76.51
959.597	7.15
959.765	18.39
959.932	17.61
960.1	81.16
960.267	47.84
960.435	38.54
960.602	87.36
960.77	19.36
960.937	-16.87
961.104	46.48
961.272	-24.04
961.439	16.45
961.606	64.11
961.774	91.82
961.941	41.45
962.108	70.51
962.275	49.2
962.443	62.95
962.61	44.35
962.777	124.56
962.944	103.44
963.111	44.93
963.278	80.39
963.446	57.33
963.613	57.53
963.78	73.41
963.947	52.49
964.114	81.16
964.281	125.34
964.448	41.06
964.615	48.23
964.782	51.52
964.949	86.59
965.116	87.36
965.282	94.15
965.449	80
965.616	30.6
965.783	82.91
965.95	49.78
966.117	33.31
966.283	49.2
966.45	45.32
966.617	65.86
966.784	80.2
966.95	66.05
967.117	103.64
967.284	24.78
967.45	47.45
967.617	94.53
967.784	87.75
967.95	87.36
968.117	26.72
968.283	103.25
968.45	159.63
968.616	83.3
968.783	94.73
968.949	84.26
969.116	94.34
969.282	70.9
969.449	55.2
969.615	76.51
969.781	54.81
969.948	39.7
970.114	44.55
970.28	113.71
970.447	79.23
970.613	100.73
970.779	51.13
970.945	64.11
971.112	70.7
971.278	53.07
971.444	72.45
971.61	123.4
971.776	57.91
971.942	69.15
972.108	89.11
972.275	61.01
972.441	84.65
972.607	119.33
972.773	49.2
972.939	73.22
973.105	85.43
973.271	26.14
973.437	55.78
973.602	39.31
973.768	66.25
973.934	53.26
974.1	84.26
974.266	-8.73
974.432	70.12
974.598	52.49
974.763	84.85
974.929	27.3
975.095	110.42
975.261	70.7
975.426	28.27
975.592	56.95
975.758	134.83
975.923	-6.8
976.089	41.25
976.255	82.33
976.42	89.5
976.586	78.65
976.751	76.32
976.917	108.09
977.082	90.08
977.248	16.45
977.413	-16.29
977.579	42.61
977.744	68.38
977.91	35.25
978.075	20.52
978.24	86.2
978.406	53.85
978.571	37.57
978.736	40.67
978.902	99.96
979.067	17.03
979.232	26.91
979.397	72.06
979.563	103.44
979.728	24.78
979.893	29.82
980.058	48.03
980.223	74.77
980.388	61.21
980.554	60.24
980.719	39.51
980.884	43
981.049	98.21
981.214	44.93
981.379	66.05
981.544	41.25
981.709	54.81
981.874	40.86
982.039	54.43
982.204	57.53
982.368	37.96
982.533	36.99
982.698	88.91
982.863	80.2
983.028	38.54
983.193	53.65
983.357	79.42
983.522	70.31
983.687	55.98
983.852	50.16
984.016	43.58
984.181	73.61
984.346	61.79
984.51	71.09
984.675	42.41
984.839	98.99
985.004	54.23
985.168	108.68
985.333	76.32
985.498	47.06
985.662	75.74
985.827	56.36
985.991	51.91
986.155	59.46
986.32	90.46
986.484	135.41
986.649	66.83
986.813	-5.25
986.977	80
987.142	112.55
987.306	29.24
987.47	38.73
987.634	43.19
987.799	46.48
987.963	58.69
988.127	91.63
988.291	105.38
988.455	61.79
988.62	51.13
988.784	33.11
988.948	74.38
989.112	38.73
989.276	54.04
989.44	49.97
989.604	51.91
989.768	37.76
989.932	107.13
990.096	27.11
990.26	13.74
990.424	17.61
990.588	56.75
990.752	121.08
990.915	65.66
991.079	24.4
991.243	6.38
991.407	76.32
991.571	55.01
991.734	64.11
991.898	72.25
992.062	137.35
992.226	53.85
992.389	48.81
992.553	17.81
992.717	28.08
992.88	52.1
993.044	64.11
993.207	47.45
993.371	78.06
993.535	55.4
993.698	56.36
993.862	102.48
994.025	73.03
994.189	48.81
994.352	55.2
994.515	61.01
994.679	94.15
994.842	19.55
995.006	68.57
995.169	19.55
995.332	20.33
995.496	61.21
995.659	10.06
995.822	16.26
995.985	57.72
996.149	77.48
996.312	47.26
996.475	94.53
996.638	24.78
996.801	82.33
996.964	111
997.128	51.91
997.291	44.35
997.454	56.75
997.617	-1.95
997.78	89.88
997.943	42.8
998.106	45.9
998.269	16.45
998.432	24.59
998.595	62.76
998.758	-11.25
998.92	13.74
999.083	-16.1
999.246	30.21
999.409	-1.95
999.572	-6.41
999.735	5.22
999.897	55.59
1000.06	12.19
1000.223	24.98
1000.386	58.5
1000.548	68.18
1000.711	54.81
1000.874	67.6
1001.036	22.65
1001.199	96.28
1001.361	14.71
1001.524	28.85
1001.687	60.82
1001.849	23.62
1002.012	23.43
1002.174	44.55
1002.337	49.58
1002.499	38.54
1002.661	68.57
1002.824	-11.45
1002.986	12.38
1003.149	55.2
1003.311	14.71
1003.473	78.65
1003.636	11.8
1003.798	58.3
1003.96	77.87
1004.123	25.95
1004.285	42.8
1004.447	41.06
1004.609	13.55
1004.771	67.99
1004.933	-3.89
1005.096	18.78
1005.258	-8.15
1005.42	34.66
1005.582	48.23
1005.744	44.35
1005.906	-22.68
1006.068	60.24
1006.23	-3.7
1006.392	-43.42
1006.554	-8.93
1006.716	67.41
1006.878	36.8
1007.04	7.15
1007.202	29.24
1007.363	56.17
1007.525	27.3
1007.687	67.41
1007.849	66.05
1008.011	-7.96
1008.172	-1.37
1008.334	34.66
1008.496	66.05
1008.658	-31.02
1008.819	10.45
1008.981	2.31
1009.143	-1.76
1009.304	23.23
1009.466	45.51
1009.627	66.83
1009.789	137.35
1009.95	40.67
1010.112	3.47
1010.273	45.32
1010.435	4.83
1010.596	11.61
1010.758	25.17
1010.919	7.54
1011.081	-21.91
1011.242	1.92
1011.403	61.6
1011.565	33.11
1011.726	18.2
1011.887	25.36
1012.049	15.29
1012.21	50.36
1012.371	92.21
1012.532	-35.28
1012.693	31.76
1012.855	-12.61
1013.016	25.95
1013.177	80.78
1013.338	3.47
1013.499	84.46
1013.66	43.77
1013.821	39.12
1013.982	35.63
1014.143	18
1014.304	24.59
1014.465	37.76
1014.626	41.45
1014.787	21.1
1014.948	79.03
1015.109	-39.35
1015.27	50.94
1015.431	15.87
1015.592	-9.51
1015.752	62.18
1015.913	34.08
1016.074	20.91
1016.235	40.86
1016.395	1.53
1016.556	7.93
1016.717	29.43
1016.877	63.92
1017.038	9.86
1017.199	35.25
1017.359	41.64
1017.52	31.18
1017.681	10.06
1017.841	3.86
1018.002	-2.73
1018.162	19.36
1018.323	57.53
1018.483	23.62
1018.644	3.86
1018.804	0.57
1018.964	-4.86
1019.125	-0.21
1019.285	12.19
1019.446	-0.21
1019.606	2.7
1019.766	-31.21
1019.926	55.98
1020.087	37.96
1020.247	-24.82
1020.407	39.7
1020.567	50.94
1020.728	7.93
1020.888	-25.2
1021.048	-2.92
1021.208	2.5
1021.368	2.31
1021.528	69.73
1021.688	42.03
1021.848	55.01
1022.008	21.49
1022.168	2.89
1022.328	18
1022.488	72.06
1022.648	-8.15
1022.808	33.11
1022.968	17.61
1023.128	-19.39
1023.288	-6.41
1023.448	7.93
1023.608	49.39
1023.767	47.26
1023.927	-1.76
1024.087	-32.18
1024.247	-17.84
1024.406	-5.44
1024.566	-20.36
1024.726	-15.71
1024.885	39.7
1025.045	29.43
1025.205	4.44
1025.364	-13.77
1025.524	18.97
1025.683	10.25
1025.843	34.86
1026.003	31.37
1026.162	44.93
1026.321	32.73
1026.481	51.91
1026.64	9.86
1026.8	-7.57
1026.959	7.54
1027.119	14.32
1027.278	10.06
1027.437	-12.61
1027.597	8.51
1027.756	15.68
1027.915	56.56
1028.074	10.45
1028.234	2.31
1028.393	29.43
1028.552	8.9
1028.711	-76.55
1028.87	18.78
1029.03	-8.73
1029.189	12.58
1029.348	-35.67
1029.507	-0.21
1029.666	-24.04
1029.825	-11.25
1029.984	-22.3
1030.143	17.81
1030.302	17.23
1030.461	-41.87
1030.62	-3.89
1030.779	21.3
1030.938	-1.76
1031.097	-18.81
1031.255	32.92
1031.414	56.95
1031.573	36.99
1031.732	-57.75
1031.891	4.44
1032.049	30.01
1032.208	22.07
1032.367	-20.94
1032.525	-18.62
1032.684	2.5
1032.843	22.46
1033.001	-64.53
1033.16	139.48
1033.319	49.39
1033.477	54.43
1033.636	-22.68
1033.794	-42.25
1033.953	28.27
1034.111	70.7
1034.27	-0.4
1034.428	-1.95
1034.587	-34.89
1034.745	15.68
1034.903	13.55
1035.062	43.19
1035.22	-27.72
1035.378	37.96
1035.537	-42.06
1035.695	4.05
1035.853	-11.64
1036.011	3.86
1036.17	33.31
1036.328	-50.2
1036.486	-11.64
1036.644	17.03
1036.802	-53.1
1036.96	-5.63
1037.119	-12.8
1037.277	-31.4
1037.435	-34.89
1037.593	-31.6
1037.751	-1.37
1037.909	38.54
1038.067	38.54
