Data from oakcork_FLMT105791__195__17-32-08-057.txt Node

Date: Mon Mar 20 17:32:08 GMT 2023
User: antho
Spectrometer: FLMT10579
Trigger mode: 0
Integration Time (sec): 1.000000E-1
Scans to average: 10
Electric dark correction enabled: true
Nonlinearity correction enabled: false
Boxcar width: 0
XAxis mode: Wavelengths
Number of Pixels in Spectrum: 3648
>>>>>Begin Spectral Data<<<<<
345.248	-150.23
345.464	-150.23
345.681	-150.23
345.898	-138.42
346.114	-137.25
346.331	-12.67
346.548	16.58
346.764	-18.1
346.981	5.93
347.197	-22.56
347.414	11.93
347.631	-7.83
347.847	54.94
348.064	-19.46
348.28	43.32
348.497	-41.54
348.713	-10.54
348.93	40.99
349.146	19.68
349.363	24.91
349.579	20.46
349.796	-1.44
350.012	-0.47
350.229	40.61
350.445	21.62
350.661	3.6
350.878	-2.21
351.094	38.09
351.311	30.34
351.527	37.89
351.743	3.6
351.96	35.38
352.176	23.17
352.392	41.77
352.609	40.41
352.825	27.24
353.041	14.06
353.257	21.04
353.474	7.86
353.69	37.31
353.906	25.69
354.122	-6.67
354.339	72.19
354.555	23.56
354.771	18.91
354.987	69.47
355.203	79.36
355.42	26.66
355.636	-10.54
355.852	-7.44
356.068	14.06
356.284	-6.67
356.5	61.34
356.716	26.85
356.932	3.99
357.148	28.21
357.364	7.09
357.58	64.24
357.796	55.72
358.012	53.59
358.228	29.18
358.444	-16.55
358.66	55.14
358.876	43.32
359.092	3.21
359.308	37.12
359.524	45.84
359.74	39.64
359.956	-16.16
360.172	27.24
360.388	33.24
360.604	0.11
360.819	76.64
361.035	20.26
361.251	60.76
361.467	26.08
361.683	57.27
361.898	18.13
362.114	59.01
362.33	31.31
362.546	30.73
362.762	15.23
362.977	32.08
363.193	-18.68
363.409	44.29
363.624	-3.18
363.84	-1.82
364.056	0.69
364.271	66.18
364.487	30.34
364.703	-1.24
364.918	-18.1
365.134	7.28
365.35	14.06
365.565	110.74
365.781	16.58
365.996	47.97
366.212	64.63
366.427	49.52
366.643	-10.74
366.858	8.64
367.074	17.16
367.289	71.99
367.505	126.82
367.72	-4.92
367.936	15.81
368.151	83.42
368.367	35.38
368.582	27.04
368.798	8.44
369.013	57.85
369.228	43.9
369.444	56.69
369.659	66.96
369.874	45.64
370.09	90.98
370.305	-36.89
370.52	19.49
370.736	60.37
370.951	22.59
371.166	75.67
371.381	87.11
371.597	48.36
371.812	34.41
372.027	-0.08
372.242	10.19
372.458	81.87
372.673	32.66
372.888	25.69
373.103	53.2
373.318	104.74
373.533	61.14
373.749	43.12
373.964	-12.09
374.179	54.17
374.394	17.36
374.609	75.09
374.824	-6.67
375.039	57.85
375.254	37.12
375.469	62.5
375.684	38.28
375.899	72.19
376.114	29.18
376.329	50.29
376.544	52.62
376.759	63.66
376.974	23.17
377.189	19.29
377.404	20.46
377.619	48.94
377.834	-25.07
378.049	13.68
378.264	3.79
378.478	56.69
378.693	7.67
378.908	52.81
379.123	21.23
379.338	64.82
379.553	34.99
379.767	41.77
379.982	64.82
380.197	53.39
380.412	36.34
380.626	56.49
380.841	102.41
381.056	53.59
381.271	76.64
381.485	7.86
381.7	-5.7
381.915	55.14
382.129	18.52
382.344	63.47
382.559	27.82
382.773	66.18
382.988	3.79
383.202	37.31
383.417	6.12
383.632	118.88
383.846	24.72
384.061	36.73
384.275	30.34
384.49	36.92
384.704	45.45
384.919	56.11
385.133	40.8
385.348	23.17
385.562	-6.67
385.777	66.57
385.991	41.19
386.206	32.28
386.42	8.64
386.634	50.29
386.849	47.19
387.063	51.07
387.277	32.47
387.492	38.47
387.706	21.81
387.92	15.81
388.135	62.11
388.349	36.54
388.563	41.77
388.778	49.71
388.992	84.39
389.206	51.46
389.42	134.38
389.635	56.88
389.849	76.84
390.063	67.73
390.277	37.31
390.491	107.26
390.706	59.21
390.92	52.62
391.134	49.52
391.348	71.99
391.562	6.12
391.776	45.26
391.99	28.79
392.205	75.48
392.419	26.27
392.633	12.51
392.847	74.12
393.061	19.1
393.275	77.22
393.489	22.59
393.703	34.02
393.917	76.06
394.131	30.53
394.345	63.66
394.559	95.63
394.773	38.09
394.986	68.89
395.2	42.16
395.414	75.67
395.628	24.72
395.842	56.3
396.056	25.3
396.27	22.2
396.484	68.31
396.697	67.34
396.911	95.05
397.125	50.49
397.339	83.81
397.553	54.94
397.766	128.18
397.98	96.99
398.194	81.87
398.408	32.47
398.621	95.82
398.835	102.61
399.049	98.34
399.262	116.56
399.476	91.37
399.69	101.44
399.903	138.45
400.117	95.44
400.331	92.72
400.544	41.38
400.758	181.85
400.971	100.67
401.185	121.4
401.398	62.31
401.612	125.66
401.826	115.97
402.039	119.66
402.253	68.89
402.466	102.22
402.68	68.7
402.893	90.59
403.106	85.36
403.32	97.76
403.533	141.35
403.747	90.01
403.96	105.32
404.174	111.32
404.387	50.1
404.6	65.41
404.814	122.37
405.027	106.09
405.24	111.52
405.454	60.56
405.667	129.34
405.88	21.23
406.094	111.13
406.307	100.28
406.52	84.97
406.733	77.61
406.947	55.72
407.16	148.33
407.373	161.89
407.586	96.99
407.799	70.44
408.012	108.22
408.226	117.14
408.439	145.42
408.652	58.82
408.865	123.92
409.078	150.85
409.291	115.97
409.504	90.59
409.717	127.4
409.93	124.5
410.143	105.32
410.357	33.83
410.57	71.8
410.783	89.43
410.996	97.76
411.209	106.48
411.421	121.59
411.634	80.71
411.847	95.63
412.06	106.48
412.273	126.24
412.486	110.16
412.699	190.18
412.912	120.62
413.125	117.72
413.338	92.14
413.55	162.28
413.763	134.57
413.976	111.52
414.189	101.25
414.402	115.78
414.615	156.66
414.827	93.5
415.04	163.83
415.253	139.22
415.466	131.09
415.678	197.35
415.891	108.03
416.104	135.35
416.316	109.39
416.529	100.47
416.742	150.07
416.954	164.6
417.167	145.23
417.38	110.55
417.592	192.5
417.805	103.77
418.017	88.07
418.23	161.5
418.442	125.08
418.655	126.82
418.868	118.11
419.08	147.17
419.293	168.48
419.505	134.57
419.718	155.89
419.93	158.21
420.142	106.29
420.355	161.5
420.567	147.55
420.78	170.22
420.992	143.87
421.205	158.4
421.417	100.47
421.629	116.56
421.842	124.69
422.054	104.74
422.266	179.91
422.479	196.57
422.691	117.91
422.903	167.9
423.115	102.8
423.328	115.59
423.54	162.47
423.752	148.91
423.964	123.53
424.177	146
424.389	145.23
424.601	215.75
424.813	146.2
425.025	209.55
425.238	159.95
425.45	130.31
425.662	144.45
425.874	413.57
426.086	137.29
426.298	162.67
426.51	157.82
426.722	155.89
426.934	133.6
427.146	150.27
427.358	97.76
427.57	186.89
427.782	152.79
427.994	152.79
428.206	157.82
428.418	115.97
428.63	149.1
428.842	190.18
429.054	158.02
429.266	171.39
429.478	130.5
429.69	155.5
429.902	114.81
430.114	172.16
430.325	166.35
430.537	126.24
430.749	154.34
430.961	80.71
431.173	131.86
431.384	158.99
431.596	70.25
431.808	138.64
432.02	148.14
432.231	190.57
432.443	177.78
432.655	163.64
432.867	128.76
433.078	171.77
433.29	219.24
433.502	192.5
433.713	174.68
433.925	182.43
434.136	219.43
434.348	158.02
434.56	124.5
434.771	233.19
434.983	131.47
435.194	167.32
435.406	169.84
435.617	225.63
435.829	244.82
436.04	198.12
436.252	201.22
436.463	231.64
436.675	212.07
436.886	187.47
437.098	208.97
437.309	236.87
437.521	189.4
437.732	228.93
437.943	203.35
438.155	218.08
438.366	157.24
438.578	269.03
438.789	197.15
439	223.31
439.211	185.14
439.423	206.84
439.634	222.73
439.845	240.17
440.057	223.89
440.268	231.45
440.479	188.44
440.69	237.26
440.902	175.26
441.113	230.28
441.324	175.26
441.535	211.49
441.746	254.12
441.957	189.6
442.168	183.01
442.38	252.57
442.591	262.64
442.802	205.49
443.013	219.82
443.224	229.32
443.435	208.59
443.646	178.17
443.857	225.05
444.068	228.73
444.279	233.58
444.49	309.72
444.701	228.35
444.912	329.29
445.123	273.49
445.334	251.79
445.545	245.4
445.756	247.33
445.967	204.71
446.178	235.9
446.388	279.3
446.599	273.68
446.81	266.13
447.021	204.71
447.232	290.15
447.443	293.06
447.653	213.82
447.864	259.35
448.075	251.6
448.286	279.3
448.496	263.61
448.707	288.41
448.918	247.33
449.129	350.99
449.339	233
449.55	258.18
449.761	266.13
449.971	307.2
450.182	253.34
450.393	279.3
450.603	264.19
450.814	331.61
451.024	299.45
451.235	306.62
451.446	331.03
451.656	330.84
451.867	269.62
452.077	285.12
452.288	321.54
452.498	309.53
452.709	289.18
452.919	291.9
453.13	278.33
453.34	321.73
453.55	243.65
453.761	332.39
453.971	313.21
454.182	321.35
454.392	317.86
454.602	350.21
454.813	317.28
455.023	311.27
455.233	248.5
455.444	300.42
455.654	233.38
455.864	276.59
456.075	275.43
456.285	271.75
456.495	299.84
456.705	321.54
456.916	362.42
457.126	363.2
457.336	286.28
457.546	246.75
457.756	274.27
457.967	345.37
458.177	290.93
458.387	319.6
458.597	252.37
458.807	296.35
459.017	306.04
459.227	298.68
459.437	300.61
459.647	324.83
459.857	321.15
460.068	307.59
460.278	333.36
460.488	328.51
460.698	361.84
460.908	304.3
461.117	265.55
461.327	288.41
461.537	330.65
461.747	317.66
461.957	317.86
462.167	378.89
462.377	341.69
462.587	323.09
462.797	381.02
463.007	325.61
463.216	348.08
463.426	364.36
463.636	345.37
463.846	327.35
464.056	324.83
464.265	374.24
464.475	283.76
464.685	328.32
464.895	329.48
465.104	316.31
465.314	364.75
465.524	323.28
465.733	304.88
465.943	391.29
466.153	424.81
466.362	374.63
466.572	355.83
466.782	327.35
466.991	334.91
467.201	392.45
467.41	315.73
467.62	352.15
467.829	320.76
468.039	369.78
468.249	340.72
468.458	357.58
468.668	386.83
468.877	391.68
469.086	419.58
469.296	373.66
469.505	350.21
469.715	414.34
469.924	395.74
470.134	381.41
470.343	387.8
470.552	364.16
470.762	362.42
470.971	334.13
471.18	384.7
471.39	382.38
471.599	350.6
471.808	410.28
472.018	358.16
472.227	408.73
472.436	436.43
472.645	393.23
472.855	389.35
473.064	429.84
473.273	418.99
473.482	400.98
473.691	448.83
473.901	412.79
474.11	392.64
474.319	498.62
474.528	386.06
474.737	447.48
474.946	459.88
475.155	434.69
475.364	448.06
475.573	411.05
475.783	442.63
475.992	453.68
476.201	441.66
476.41	413.96
476.619	400.59
476.828	435.66
477.037	417.64
477.245	421.13
477.454	464.33
477.663	439.92
477.872	428.49
478.081	493.78
478.29	439.92
478.499	513.16
478.708	454.45
478.917	514.12
479.125	474.41
479.334	465.69
479.543	481.38
479.752	466.08
479.961	486.22
480.169	508.89
480.378	461.43
480.587	599.37
480.796	510.83
481.004	508.89
481.213	508.89
481.422	492.42
481.63	500.56
481.839	524.39
482.048	585.23
482.256	520.71
482.465	533.31
482.674	541.06
482.882	544.16
483.091	600.15
483.299	542.02
483.508	527.69
483.716	533.69
483.925	553.84
484.134	519.16
484.342	534.66
484.551	577.87
484.759	575.93
484.967	596.47
485.176	571.28
485.384	555.39
485.593	579.22
485.801	565.66
486.01	530.4
486.218	533.11
486.426	509.67
486.635	524.97
486.843	498.43
487.051	540.67
487.26	521.29
487.468	568.76
487.676	581.55
487.885	521.1
488.093	555.2
488.301	557.91
488.509	560.62
488.717	592.2
488.926	580.39
489.134	566.63
489.342	591.62
489.55	550.55
489.758	585.23
489.967	602.67
490.175	688.88
490.383	576.12
490.591	666.8
490.799	569.34
491.007	666.41
491.215	642.97
491.423	626.11
491.631	624.75
491.839	659.05
492.047	624.56
492.255	592.4
492.463	562.56
492.671	596.85
492.879	672.8
493.087	624.37
493.295	667.96
493.503	654.59
493.711	653.23
493.919	646.65
494.127	682.1
494.334	671.64
494.542	634.25
494.75	659.24
494.958	623.4
495.166	704
495.374	674.16
495.581	716.2
495.789	672.22
495.997	727.63
496.205	679.2
496.412	667.57
496.62	685.2
496.828	690.05
497.035	709.23
497.243	733.06
497.451	677.26
497.658	707.48
497.866	674.55
498.074	740.23
498.281	700.12
498.489	722.79
498.696	687.14
498.904	694.7
499.112	700.7
499.319	761.93
499.527	705.16
499.734	757.66
499.942	678.42
500.149	691.98
500.357	722.02
500.564	674.35
500.771	710.97
500.979	679
501.186	681.91
501.394	705.74
501.601	690.82
501.808	728.41
502.016	698.38
502.223	704
502.43	709.62
502.638	728.02
502.845	686.37
503.052	776.07
503.26	719.69
503.467	805.71
503.674	748.75
503.881	755.73
504.089	809.2
504.296	746.81
504.503	680.75
504.71	738.29
504.917	708.84
505.125	772.97
505.332	775.1
505.539	781.69
505.746	810.56
505.953	774.91
506.16	778.78
506.367	820.05
506.574	859.96
506.781	862.68
506.988	768.32
507.195	809.78
507.402	778.78
507.609	836.13
507.816	811.33
508.023	815.79
508.23	795.06
508.437	763.48
508.644	815.01
508.851	873.91
509.058	850.47
509.265	840.59
509.472	851.44
509.679	924.67
509.885	851.83
510.092	849.89
510.299	859.58
510.506	849.31
510.713	875.66
510.92	833.03
511.126	881.08
511.333	907.82
511.54	885.34
511.746	927.19
511.953	934.17
512.16	933.97
512.367	910.72
512.573	869.46
512.78	883.99
512.987	891.54
513.193	900.26
513.4	872.56
513.606	867.52
513.813	889.8
514.02	903.75
514.226	952.77
514.433	932.42
514.639	871.98
514.846	900.26
515.052	932.62
515.259	913.24
515.465	942.69
515.672	884.76
515.878	1021.94
516.085	953.74
516.291	977.76
516.497	894.84
516.704	926.81
516.91	867.91
517.117	852.6
517.323	815.4
517.529	883.41
517.736	906.66
517.942	895.81
518.148	904.14
518.354	914.21
518.561	907.43
518.767	902.98
518.973	967.69
519.179	965.36
519.386	966.33
519.592	935.33
519.798	952.77
520.004	1019.42
520.21	954.71
520.417	1032.98
520.623	1040.34
520.829	1040.15
521.035	1043.64
521.241	1042.67
521.447	1102.34
521.653	1145.16
521.859	1042.67
522.065	1075.41
522.271	1165.89
522.477	1122.1
522.683	1158.14
522.889	1126.37
523.095	1126.17
523.301	1083.16
523.507	1086.26
523.713	1108.93
523.919	1098.85
524.125	1171.7
524.331	1127.92
524.537	1209.48
524.742	1192.05
524.948	1190.11
525.154	1231.18
525.36	1301.13
525.566	1188.36
525.772	1264.89
525.977	1145.74
526.183	1220.33
526.389	1253.27
526.595	1163.57
526.8	1193.01
527.006	1169.57
527.212	1136.83
527.417	1114.55
527.623	1120.17
527.829	1185.65
528.034	1199.21
528.24	1219.36
528.446	1191.46
528.651	1269.35
528.857	1225.76
529.062	1322.44
529.268	1273.23
529.473	1306.16
529.679	1266.44
529.884	1379.01
530.09	1330.19
530.295	1305.97
530.501	1333.87
530.706	1350.72
530.912	1301.71
531.117	1332.32
531.323	1320.11
531.528	1374.56
531.733	1369.52
531.939	1302.68
532.144	1361.19
532.35	1344.72
532.555	1383.66
532.76	1359.83
532.966	1363.71
533.171	1376.88
533.376	1316.63
533.581	1277.29
533.787	1334.64
533.992	1395.67
534.197	1392.96
534.402	1340.46
534.607	1402.07
534.813	1446.63
535.018	1397.22
535.223	1385.41
535.428	1395.48
535.633	1429.97
535.838	1433.46
536.043	1438.1
536.249	1504.37
536.454	1437.33
536.659	1455.74
536.864	1428.81
537.069	1413.31
537.274	1458.45
537.479	1432.29
537.684	1458.45
537.889	1415.44
538.094	1462.9
538.299	1443.92
538.504	1465.62
538.708	1452.64
538.913	1487.7
539.118	1454.57
539.323	1492.16
539.528	1450.31
539.733	1444.69
539.938	1459.42
540.142	1453.8
540.347	1425.71
540.552	1426.48
540.757	1420.67
540.962	1459.8
541.166	1403.42
541.371	1397.03
541.576	1429.97
541.781	1351.31
541.985	1433.07
542.19	1442.95
542.395	1515.22
542.599	1544.67
542.804	1480.54
543.008	1539.82
543.213	1478.21
543.418	1447.79
543.622	1473.56
543.827	1440.04
544.031	1593.3
544.236	1525.1
544.44	1509.6
544.645	1597.75
544.849	1539.63
545.054	1536.14
545.258	1587.87
545.463	1567.92
545.667	1478.99
545.872	1543.89
546.076	1526.07
546.281	1537.5
546.485	1531.88
546.689	1586.71
546.894	1568.69
547.098	1569.08
547.302	1526.45
547.507	1530.91
547.711	1557.65
547.915	1606.47
548.119	1531.49
548.324	1530.13
548.528	1573.92
548.732	1517.93
548.936	1576.25
549.141	1590.97
549.345	1558.03
549.549	1548.73
549.753	1573.15
549.957	1643.48
550.161	1631.66
550.366	1599.88
550.57	1549.32
550.774	1566.75
550.978	1560.55
551.182	1589.81
551.386	1581.67
551.59	1567.14
551.794	1573.15
551.998	1576.25
552.202	1587.48
552.406	1541.76
552.61	1594.46
552.814	1615.58
553.018	1598.53
553.222	1579.93
553.426	1550.48
553.63	1634.18
553.833	1589.81
554.037	1565.98
554.241	1607.05
554.445	1592.52
554.649	1591.17
554.853	1567.53
555.056	1599.3
555.26	1604.15
555.464	1604.15
555.668	1592.52
555.871	1635.53
556.075	1616.74
556.279	1568.3
556.483	1545.83
556.686	1578.57
556.89	1576.83
557.094	1575.67
557.297	1542.92
557.501	1571.98
557.704	1486.35
557.908	1542.73
558.112	1495.07
558.315	1597.17
558.519	1528.78
558.722	1536.92
558.926	1536.14
559.129	1488.87
559.333	1466.78
559.536	1473.95
559.74	1472.4
559.943	1434.04
560.147	1470.46
560.35	1458.25
560.553	1460
560.757	1449.54
560.96	1534.01
561.164	1458.45
561.367	1517.15
561.57	1488.48
561.774	1471.82
561.977	1471.24
562.18	1459.61
562.384	1603.76
562.587	1451.09
562.79	1479.95
562.993	1458.64
563.197	1506.69
563.4	1514.25
563.603	1524.9
563.806	1540.79
564.009	1434.81
564.212	1464.26
564.416	1403.04
564.619	1462.9
564.822	1425.9
565.025	1474.14
565.228	1443.14
565.431	1469.69
565.634	1388.12
565.837	1392.57
566.04	1401.1
566.243	1396.84
566.446	1308.49
566.649	1415.44
566.852	1372.81
567.055	1387.34
567.258	1417.37
567.461	1433.26
567.664	1445.27
567.867	1318.56
568.07	1412.92
568.273	1375.72
568.475	1395.87
568.678	1375.52
568.881	1349.56
569.084	1360.8
569.287	1296.67
569.489	1300.35
569.692	1340.07
569.895	1378.43
570.098	1295.89
570.3	1246.1
570.503	1216.07
570.706	1256.56
570.909	1233.51
571.111	1229.25
571.314	1203.28
571.516	1242.61
571.719	1261.79
571.922	1219.95
572.124	1237.58
572.327	1264.12
572.529	1239.13
572.732	1197.66
572.935	1264.7
573.137	1275.55
573.34	1211.61
573.542	1284.08
573.745	1264.7
573.947	1228.08
574.15	1204.64
574.352	1195.15
574.554	1244.16
574.757	1202.7
574.959	1201.35
575.162	1180.23
575.364	1200.38
575.566	1254.43
575.769	1168.6
575.971	1199.21
576.173	1133.92
576.376	1191.66
576.578	1213.36
576.78	1193.98
576.982	1113.19
577.185	1188.95
577.387	1133.34
577.589	1113
577.791	1176.16
577.993	1193.98
578.196	1133.15
578.398	1178.68
578.6	1190.88
578.802	1122.49
579.004	1118.62
579.206	1110.28
579.408	1129.27
579.61	1123.07
579.812	1156.01
580.014	1130.43
580.216	1117.65
580.418	1142.45
580.62	1109.12
580.822	1078.32
581.024	1132.18
581.226	1170.35
581.428	1137.22
581.63	1180.42
581.832	1119
582.034	1170.15
582.236	1148.26
582.438	1171.32
582.64	1178.1
582.841	1194.95
583.043	1203.67
583.245	1191.46
583.447	1150.2
583.649	1139.73
583.85	1194.18
584.052	1174.03
584.254	1116.87
584.456	1193.98
584.657	1117.26
584.859	1140.12
585.061	1144.77
585.262	1094.98
585.464	1093.43
585.666	1132.37
585.867	1089.36
586.069	1153.1
586.27	1144.19
586.472	1114.55
586.674	1114.55
586.875	1105.63
587.077	1131.4
587.278	1127.14
587.48	1110.87
587.681	1194.56
587.883	1106.6
588.084	1059.91
588.285	1070.76
588.487	1070.95
588.688	1086.65
588.89	1032.98
589.091	959.74
589.292	1005.27
589.494	959.16
589.695	983.77
589.896	931.84
590.098	937.07
590.299	951.99
590.5	958.77
590.702	964.78
590.903	1000.62
591.104	1009.73
591.305	1003.92
591.507	1077.93
591.708	1034.53
591.909	1050.03
592.11	1081.22
592.311	1037.82
592.512	996.94
592.714	953.54
592.915	976.99
593.116	987.45
593.317	1006.24
593.518	995.59
593.719	1028.91
593.92	1053.52
594.121	1092.07
594.322	995.78
594.523	992.1
594.724	992.87
594.925	1016.32
595.126	1010.89
595.327	1023.29
595.528	995.78
595.729	995.97
595.929	993.07
596.13	1016.51
596.331	1013.41
596.532	1000.43
596.733	1044.6
596.934	1044.02
597.135	1050.8
597.335	1021.55
597.536	1000.43
597.737	1049.06
597.938	966.91
598.138	1033.95
598.339	1029.69
598.54	1049.06
598.74	1029.88
598.941	1006.24
599.142	1057.59
599.342	1027.36
599.543	984.16
599.744	1001.2
599.944	997.14
600.145	1030.65
600.345	1024.26
600.546	1084.9
600.746	1067.27
600.947	1072.31
601.147	1032.98
601.348	1054.87
601.548	998.69
601.749	1025.23
601.949	983.38
602.15	940.37
602.35	1005.66
602.551	1046.54
602.751	999.07
602.951	1000.24
603.152	921.38
603.352	1022.52
603.552	989
603.753	1034.53
603.953	1042.47
604.153	988.03
604.354	997.91
604.554	996.75
604.754	1013.99
604.954	965.17
605.155	1015.15
605.355	962.26
605.555	1008.37
605.755	1046.74
605.955	1021.16
606.155	993.26
606.356	1019.8
606.556	1017.87
606.756	1017.09
606.956	961.49
607.156	1046.93
607.356	965.75
607.556	986.67
607.756	1013.22
607.956	1007.6
608.156	1001.01
608.356	957.42
608.556	1012.05
608.756	996.94
608.956	953.74
609.156	974.27
609.356	941.92
609.556	919.44
609.755	1003.14
609.955	943.86
610.155	947.73
610.355	968.85
610.555	916.92
610.755	971.76
610.954	916.73
611.154	977.96
611.354	975.63
611.554	938.62
611.753	909.37
611.953	909.56
612.153	946.76
612.352	949.86
612.552	872.36
612.752	875.85
612.951	927.19
613.151	950.44
613.351	913.24
613.55	913.24
613.75	930.87
613.949	926.03
614.149	923.71
614.348	910.34
614.548	917.7
614.747	835.36
614.947	860.93
615.146	860.74
615.346	932.62
615.545	900.84
615.745	897.16
615.944	947.34
616.144	865.78
616.343	904.72
616.542	871.98
616.742	880.31
616.941	883.21
617.14	843.69
617.34	859.77
617.539	891.16
617.738	844.66
617.938	914.21
618.137	855.51
618.336	818.11
618.535	856.86
618.734	876.63
618.934	874.88
619.133	867.71
619.332	876.82
619.531	849.11
619.73	872.75
619.929	899.1
620.128	881.28
620.328	904.14
620.527	819.86
620.726	841.17
620.925	861.32
621.124	847.76
621.323	874.88
621.522	829.35
621.721	826.25
621.92	826.06
622.119	876.04
622.318	819.47
622.517	842.14
622.715	859.77
622.914	785.95
623.113	822.57
623.312	786.92
623.511	814.24
623.71	815.6
623.909	796.61
624.107	897.94
624.306	790.41
624.505	779.36
624.704	824.31
624.902	810.56
625.101	849.69
625.3	829.54
625.499	782.85
625.697	796.41
625.896	819.86
626.095	831.48
626.293	758.44
626.492	780.33
626.69	803.58
626.889	781.5
627.088	811.14
627.286	753.21
627.485	750.5
627.683	733.25
627.882	785.56
628.08	718.92
628.279	750.69
628.477	801.45
628.676	742.16
628.874	793.51
629.073	737.51
629.271	712.33
629.469	773.36
629.668	741.2
629.866	738.48
630.065	717.17
630.263	754.56
630.461	724.53
630.66	739.06
630.858	773.16
631.056	803.78
631.254	797.38
631.453	743.91
631.651	785.95
631.849	751.85
632.047	767.74
632.245	779.56
632.444	787.31
632.642	803
632.84	776.26
633.038	757.66
633.236	738.1
633.434	720.85
633.632	733.64
633.83	742.55
634.028	751.66
634.227	753.98
634.425	816.95
634.623	762.9
634.821	782.46
635.019	773.36
635.216	739.84
635.414	791.57
635.612	807.46
635.81	754.37
636.008	806.49
636.206	760.96
636.404	781.88
636.602	762.9
636.8	768.32
636.997	788.66
637.195	802.42
637.393	759.8
637.591	796.61
637.789	818.5
637.986	728.99
638.184	800.87
638.382	809.4
638.58	790.02
638.777	819.66
638.975	759.6
639.173	778.01
639.37	761.35
639.568	766.38
639.765	759.41
639.963	778.98
640.161	794.28
640.358	788.08
640.556	733.64
640.753	744.1
640.951	718.72
641.148	741.78
641.346	750.5
641.543	742.94
641.741	778.98
641.938	741.2
642.136	758.25
642.333	702.06
642.531	766.19
642.728	819.08
642.925	740.81
643.123	721.82
643.32	744.3
643.517	724.34
643.715	702.83
643.912	724.92
644.109	746.04
644.306	727.25
644.504	716.98
644.701	734.42
644.898	788.28
645.095	687.72
645.293	734.03
645.49	724.73
645.687	738.48
645.884	734.22
646.081	693.34
646.278	696.83
646.475	683.07
646.672	660.6
646.87	740.81
647.067	690.24
647.264	716.98
647.461	659.43
647.658	648.39
647.855	702.45
648.052	670.87
648.249	601.12
648.446	685.98
648.642	661.57
648.839	663.7
649.036	645.29
649.233	642.39
649.43	626.11
649.627	615.07
649.824	645.68
650.021	641.42
650.217	635.41
650.414	640.64
650.611	637.35
650.808	667.77
651.004	679.97
651.201	657.5
651.398	672.61
651.595	637.74
651.791	634.05
651.988	661.18
652.185	601.31
652.381	702.45
652.578	602.67
652.775	649.36
652.971	651.49
653.168	643.55
653.364	680.94
653.561	594.34
653.757	650.72
653.954	624.37
654.15	612.16
654.347	711.75
654.543	660.6
654.74	598.02
654.936	576.9
655.133	630.76
655.329	634.25
655.525	618.55
655.722	645.1
655.918	572.83
656.115	612.55
656.311	565.66
656.507	524.01
656.704	512.96
656.9	552.68
657.096	553.46
657.292	513.74
657.489	594.34
657.685	585.81
657.881	559.46
658.077	562.56
658.273	579.8
658.47	644.9
658.666	587.36
658.862	609.45
659.058	572.64
659.254	593.75
659.45	575.93
659.646	613.71
659.842	591.24
660.038	639.09
660.234	588.52
660.43	573.41
660.626	647.23
660.822	614.29
661.018	609.64
661.214	593.95
661.41	564.3
661.606	602.28
661.802	607.9
661.998	585.04
662.194	569.73
662.39	594.92
662.586	588.52
662.781	595.11
662.977	586
663.173	604.41
663.369	586.2
663.564	598.6
663.76	610.61
663.956	531.76
664.152	607.9
664.347	508.51
664.543	557.33
664.739	559.27
664.934	514.71
665.13	493.2
665.326	579.61
665.521	554.42
665.717	526.72
665.912	524.01
666.108	498.43
666.304	542.8
666.499	543.77
666.695	492.04
666.89	517.03
667.086	562.17
667.281	550.36
667.477	582.13
667.672	546.48
667.867	551.71
668.063	569.34
668.258	522.65
668.454	534.47
668.649	607.12
668.844	549.58
669.04	548.22
669.235	530.98
669.43	511.02
669.626	483.51
669.821	505.6
670.016	509.86
670.211	519.55
670.407	521.49
670.602	532.34
670.797	512.77
670.992	564.5
671.187	511.02
671.382	539.31
671.578	509.09
671.773	531.76
671.968	466.08
672.163	482.35
672.358	552.29
672.553	483.9
672.748	501.72
672.943	578.06
673.138	493.2
673.333	528.07
673.528	474.99
673.723	514.51
673.918	501.53
674.113	466.08
674.308	560.82
674.503	555.01
674.698	553.46
674.892	520.13
675.087	528.85
675.282	496.49
675.477	465.11
675.672	528.85
675.867	509.67
676.061	456.78
676.256	445.34
676.451	498.82
676.646	492.23
676.84	451.16
677.035	436.04
677.23	447.86
677.424	508.51
677.619	531.37
677.814	554.23
678.008	526.72
678.203	461.04
678.397	477.89
678.592	507.15
678.787	554.62
678.981	490.49
679.176	517.42
679.37	502.11
679.565	470.14
679.759	502.31
679.954	520.13
680.148	530.98
680.342	531.95
680.537	533.11
680.731	507.73
680.926	513.74
681.12	528.27
681.314	460.07
681.509	491.65
681.703	503.08
681.897	537.57
682.092	504.05
682.286	484.09
682.48	564.11
682.674	535.63
682.869	494.75
683.063	512.19
683.257	562.56
683.451	497.46
683.645	497.46
683.839	483.9
684.034	503.08
684.228	543.19
684.422	474.02
684.616	492.04
684.81	560.24
685.004	511.99
685.198	520.52
685.392	525.36
685.586	501.92
685.78	523.62
685.974	518.58
686.168	538.34
686.362	581.74
686.556	470.53
686.75	461.04
686.944	465.69
687.138	511.02
687.331	434.11
687.525	422.29
687.719	382.57
687.913	450.38
688.107	422.48
688.301	404.08
688.494	472.86
688.688	421.51
688.882	394
689.076	404.27
689.269	441.08
689.463	500.17
689.657	453.87
689.85	449.22
690.044	465.88
690.238	475.76
690.431	455.03
690.625	460.84
690.818	492.62
691.012	498.62
691.205	495.52
691.399	469.95
691.593	499.4
691.786	563.92
691.98	539.31
692.173	555.78
692.366	562.56
692.56	560.62
692.753	578.64
692.947	538.92
693.14	616.23
693.333	595.3
693.527	499.79
693.72	568.18
693.914	547.64
694.107	574.77
694.3	587.36
694.493	574.96
694.687	612.35
694.88	558.49
695.073	617.2
695.266	622.24
695.46	615.26
695.653	652.07
695.846	670.09
696.039	575.74
696.232	620.88
696.425	653.62
696.618	648.2
696.812	672.03
697.005	742.55
697.198	814.63
697.391	710.58
697.584	745.26
697.777	783.63
697.97	741.39
698.163	745.26
698.356	734.61
698.549	816.76
698.742	811.33
698.935	735.58
699.127	803.2
699.32	761.93
699.513	771.03
699.706	802.81
699.899	828.58
700.092	750.5
700.285	814.63
700.477	783.82
700.67	838.07
700.863	863.45
701.056	909.56
701.248	921.77
701.441	889.22
701.634	863.26
701.826	986.67
702.019	870.43
702.212	936.11
702.404	880.11
702.597	896.19
702.79	910.53
702.982	938.43
703.175	957.42
703.367	1000.62
703.56	979.51
703.752	1059.72
703.945	1004.5
704.137	1029.69
704.33	1028.91
704.522	1069.79
704.715	1068.63
704.907	1114.55
705.1	1089.36
705.292	1113.19
705.484	1092.85
705.677	1163.57
705.869	1148.45
706.061	1169.38
706.254	1179.45
706.446	1180.42
706.638	1167.63
706.831	1240.29
707.023	1177.71
707.215	1283.3
707.407	1259.47
707.599	1240.29
707.792	1305.97
707.984	1297.06
708.176	1330.38
708.368	1284.85
708.56	1347.24
708.752	1330.58
708.944	1292.21
709.136	1369.52
709.329	1350.34
709.521	1458.64
709.713	1384.63
709.905	1416.99
710.097	1447.02
710.289	1418.15
710.481	1445.47
710.672	1470.07
710.864	1469.69
711.056	1530.72
711.248	1533.43
711.44	1534.78
711.632	1532.07
711.824	1537.5
712.016	1603.37
712.207	1591.55
712.399	1568.5
712.591	1648.32
712.783	1638.63
712.975	1661.88
713.166	1600.85
713.358	1625.07
713.55	1724.85
713.741	1705.28
713.933	1727.95
714.125	1734.15
714.316	1687.26
714.508	1745.58
714.7	1757.21
714.891	1786.66
715.083	1803.9
715.274	1754.3
715.466	1784.33
715.657	1787.62
715.849	1723.49
716.04	1820.76
716.232	1735.7
716.423	1770.38
716.615	1715.16
716.806	1701.21
716.998	1641.35
717.189	1617.51
717.381	1549.12
717.572	1527.62
717.763	1579.73
717.955	1522.38
718.146	1492.55
718.337	1481.5
718.528	1456.9
718.72	1392.19
718.911	1478.99
719.102	1427.84
719.293	1459.61
719.485	1429.39
719.676	1433.84
719.867	1412.53
720.058	1430.55
720.249	1431.52
720.44	1450.89
720.632	1492.35
720.823	1546.41
721.014	1631.85
721.205	1691.53
721.396	1757.01
721.587	1820.76
721.778	1884.69
721.969	1894.77
722.16	1962.38
722.351	1936.62
722.542	2107.89
722.733	2084.06
722.924	2012.76
723.115	2060.23
723.305	2038.33
723.496	2042.98
723.687	1954.64
723.878	1961.03
724.069	1966.45
724.26	1979.43
724.45	1895.74
724.641	1913.17
724.832	1944.75
725.023	1910.65
725.213	1939.52
725.404	1960.06
725.595	1933.9
725.785	1965.29
725.976	2009.85
726.167	1984.28
726.357	1989.32
726.548	2096.85
726.739	2043.37
726.929	2099.56
727.12	2145.86
727.31	2116.22
727.501	2108.47
727.691	2091.03
727.882	2094.71
728.072	2189.65
728.263	2173.76
728.453	2214.64
728.644	2235.76
728.834	2207.48
729.024	2196.63
729.215	2182.68
729.405	2261.92
729.596	2314.42
729.786	2332.83
729.976	2329.54
730.167	2351.24
730.357	2317.72
730.547	2363.44
730.737	2372.55
730.928	2422.92
731.118	2433.77
731.308	2411.3
731.498	2435.9
731.688	2520.76
731.879	2550.8
732.069	2584.51
732.259	2606.98
732.449	2635.27
732.639	2779.42
732.829	2705.99
733.019	2773.8
733.209	2871.25
733.399	2845.1
733.589	2939.45
733.779	2974.52
733.969	2961.15
734.159	3016.95
734.349	3030.32
734.539	3098.91
734.729	3123.51
734.919	3165.17
735.109	3197.52
735.299	3161.87
735.488	3170.98
735.678	3158.77
735.868	3205.27
736.058	3182.22
736.248	3187.84
736.437	3152.57
736.627	3152.77
736.817	3275.6
737.007	3230.46
737.196	3276.57
737.386	3292.27
737.576	3263.2
737.765	3322.68
737.955	3277.35
738.144	3462.96
738.334	3373.64
738.524	3360.08
738.713	3375.77
738.903	3401.93
739.092	3439.9
739.282	3423.05
739.471	3467.8
739.661	3408.13
739.85	3498.03
740.04	3489.11
740.229	3534.45
740.419	3577.07
740.608	3556.92
740.797	3552.66
740.987	3659.8
741.176	3591.02
741.365	3559.83
741.555	3503.84
741.744	3631.52
741.933	3615.05
742.123	3667.17
742.312	3676.47
742.501	3710.95
742.69	3722.19
742.88	3659.61
743.069	3800.66
743.258	3725.1
743.447	3804.15
743.636	3785.93
743.825	3727.81
744.014	3764.82
744.204	3809.96
744.393	3746.41
744.582	3851.42
744.771	3871.96
744.96	3792.13
745.149	3843.09
745.338	3830.5
745.527	3871.76
745.716	3835.73
745.905	3762.1
746.094	3843.86
746.283	3876.03
746.471	3863.43
746.66	3902.38
746.849	3889.01
747.038	3928.73
747.227	3884.55
747.416	3884.16
747.604	3861.88
747.793	3924.27
747.982	3852.2
748.171	3920.98
748.359	3936.67
748.548	3946.36
748.737	3907.03
748.926	3886.68
749.114	3837.08
749.303	3944.23
749.491	3933.57
749.68	3834.95
749.869	3921.56
750.057	3876.8
750.246	3860.72
750.434	3878.55
750.623	3879.51
750.811	3833.6
751	3920.2
751.188	3869.83
751.377	3847.55
751.565	3808.99
751.754	3829.53
751.942	3856.65
752.131	3907.03
752.319	3803.56
752.507	3864.98
752.696	3890.94
752.884	3920.78
753.072	3839.02
753.261	3869.63
753.449	3858.78
753.637	3821.97
753.825	3931.44
754.014	3868.28
754.202	3854.33
754.39	3920.2
754.578	3912.64
754.766	3823.13
754.955	3843.28
755.143	3904.31
755.331	3856.85
755.519	3871.96
755.707	3843.28
755.895	3784
756.083	3814.41
756.271	3815.77
756.459	3798.33
756.647	3838.44
756.835	3750.09
757.023	3776.44
757.211	3808.8
757.399	3752.22
757.587	3787.48
757.775	3741.37
757.963	3740.02
758.151	3752.42
758.339	3647.4
758.526	3695.65
758.714	3715.6
758.902	3619.12
759.09	3470.71
759.278	3235.5
759.465	2972.2
759.653	2612.21
759.841	2368.67
760.028	2051.9
760.216	1754.88
760.404	1625.65
760.591	1348.59
760.779	1114.16
760.967	995.78
761.154	831.09
761.342	879.53
761.529	866.36
761.717	913.24
761.905	922.74
762.092	983.77
762.28	914.79
762.467	906.66
762.655	880.69
762.842	868.49
763.029	884.76
763.217	884.96
763.404	877.01
763.592	929.52
763.779	862.09
763.966	929.71
764.154	952.57
764.341	1052.74
764.528	1060.1
764.716	1123.07
764.903	1205.8
765.09	1232.54
765.277	1327.09
765.465	1489.06
765.652	1522.58
765.839	1603.95
766.026	1780.84
766.213	1815.52
766.4	1931.77
766.588	2143.93
766.775	2182.48
766.962	2293.5
767.149	2368.29
767.336	2509.53
767.523	2487.83
767.71	2636.82
767.897	2745.51
768.084	2881.13
768.271	2912.72
768.458	2957.08
768.645	3055.7
768.832	3048.92
769.019	3071.01
769.206	3102.39
769.392	3168.85
769.579	3251.19
769.766	3197.14
769.953	3211.09
770.14	3275.22
770.327	3305.83
770.513	3363.95
770.7	3433.31
770.887	3332.18
771.073	3319.2
771.26	3375.19
771.447	3336.05
771.634	3343.22
771.82	3407.74
772.007	3351.17
772.193	3371.7
772.38	3410.84
772.567	3354.65
772.753	3366.86
772.94	3401.73
773.126	3421.3
773.313	3421.88
773.499	3368.8
773.686	3410.45
773.872	3357.95
774.059	3359.69
774.245	3355.04
774.432	3409.87
774.618	3300.21
774.804	3332.57
774.991	3315.52
775.177	3324.23
775.363	3303.89
775.55	3369.76
775.736	3280.64
775.922	3322.1
776.109	3287.62
776.295	3326.56
776.481	3314.74
776.667	3370.54
776.853	3311.83
777.04	3288.2
777.226	3281.8
777.412	3377.13
777.598	3260.49
777.784	3267.85
777.97	3262.43
778.156	3279.67
778.342	3229.49
778.528	3260.1
778.715	3206.82
778.901	3217.48
779.087	3280.45
779.272	3190.74
779.458	3124.48
779.644	3226
779.83	3219.61
780.016	3248.87
780.202	3221.35
780.388	3183.96
780.574	3096.19
780.76	3179.89
780.946	3182.99
781.131	3150.25
781.317	3148.12
781.503	3128.94
781.689	3137.07
781.874	3274.44
782.06	3124.87
782.246	3142.11
782.432	3143.86
782.617	3114.02
782.803	3153.16
782.989	3062.87
783.174	3061.51
783.36	3027.8
783.545	3072.94
783.731	3077.4
783.916	2980.91
784.102	3075.66
784.288	2979.56
784.473	3003.58
784.659	2967.55
784.844	3031.48
785.029	2974.71
785.215	2979.36
785.4	2970.26
785.586	3036.33
785.771	2944.3
785.956	3005.13
786.142	2965.8
786.327	2935.77
786.512	2952.05
786.698	2957.08
786.883	2871.64
787.068	2913.3
787.254	2925.5
787.439	2891.79
787.624	2883.07
787.809	2860.98
787.994	2896.63
788.18	2930.35
788.365	2773.22
788.55	2835.6
788.735	2821.07
788.92	2812.94
789.105	2796.47
789.29	2809.64
789.475	2725.36
789.66	2776.12
789.845	2746.09
790.03	2723.04
790.215	2792.4
790.4	2804.41
790.585	2762.56
790.77	2750.35
790.955	2687.58
791.14	2748.22
791.325	2810.8
791.51	2673.82
791.695	2718.39
791.879	2721.68
792.064	2662.39
792.249	2765.66
792.434	2724.01
792.618	2698.43
792.803	2776.9
792.988	2690.29
793.173	2692.81
793.357	2717.42
793.542	2669.56
793.727	2730.98
793.911	2753.65
794.096	2718
794.281	2740.47
794.465	2825.92
794.65	2723.04
794.834	2791.82
795.019	2783.68
795.203	2795.5
795.388	2789.3
795.572	2803.83
795.757	2779.61
795.941	2762.95
796.126	2725.94
796.31	2685.06
796.494	2720.71
796.679	2743.96
796.863	2693.59
797.048	2818.36
797.232	2749.58
797.416	2763.92
797.601	2767.4
797.785	2838.7
797.969	2780.97
798.153	2755.2
798.338	2802.67
798.522	2873.19
798.706	2783.87
798.89	2819.33
799.074	2911.75
799.258	2855.17
799.443	2799.57
799.627	2816.04
799.811	2834.25
799.995	2804.8
800.179	2761.01
800.363	2730.4
800.547	2761.4
800.731	2793.37
800.915	2738.15
801.099	2766.05
801.283	2712.77
801.467	2782.13
801.651	2744.16
801.835	2809.84
802.019	2752.49
802.202	2808.87
802.386	2760.24
802.57	2717.22
802.754	2732.72
802.938	2716.84
803.121	2736.79
803.305	2842.38
803.489	2753.65
803.673	2758.69
803.856	2820.3
804.04	2741.44
804.224	2746.29
804.407	2738.15
804.591	2714.9
804.775	2746.87
804.958	2742.41
805.142	2837.35
805.326	2736.99
805.509	2787.17
805.693	2802.67
805.876	2805.77
806.06	2837.93
806.243	2840.83
806.427	2828.05
806.61	2842.38
806.794	2790.27
806.977	2860.21
807.16	2806.54
807.344	2823.79
807.527	2827.66
807.71	2755.78
807.894	2817.2
808.077	2777.09
808.26	2733.5
808.444	2721.87
808.627	2791.43
808.81	2682.16
808.993	2716.06
809.177	2679.25
809.36	2679.06
809.543	2719.74
809.726	2649.22
809.909	2606.59
810.092	2594
810.276	2600.01
810.459	2640.69
810.642	2585.67
810.825	2548.86
811.008	2562.23
811.191	2488.41
811.374	2482.6
811.557	2504.49
811.74	2553.7
811.923	2431.64
812.106	2407.81
812.289	2403.93
812.472	2420.4
812.654	2378.94
812.837	2343.87
813.02	2312.68
813.203	2278.77
813.386	2195.66
813.569	2180.74
813.751	2102.85
813.934	2149.93
814.117	2087.74
814.3	2043.37
814.482	2025.93
814.665	1970.72
814.848	1934.49
815.03	1891.67
815.213	1889.15
815.396	1855.82
815.578	1852.34
815.761	1791.31
815.943	1870.74
816.126	1732.02
816.309	1749.07
816.491	1691.53
816.674	1658.78
816.856	1736.09
817.039	1695.01
817.221	1721.94
817.403	1712.64
817.586	1713.81
817.768	1718.65
817.951	1612.09
818.133	1636.11
818.315	1663.82
818.498	1709.35
818.68	1770.19
818.862	1760.11
819.045	1746.74
819.227	1746.36
819.409	1732.99
819.591	1764.57
819.774	1743.64
819.956	1694.43
820.138	1766.51
820.32	1757.79
820.502	1815.33
820.684	1949.21
820.866	1903.29
821.048	1935.65
821.231	1964.32
821.413	1989.32
821.595	1962.19
821.777	1941.27
821.959	1954.44
822.141	1971.1
822.323	1879.65
822.505	1789.17
822.686	1725.24
822.868	1658.4
823.05	1549.12
823.232	1535.56
823.414	1439.65
823.596	1551.25
823.778	1523.35
823.96	1577.8
824.141	1596.59
824.323	1612.28
824.505	1693.46
824.687	1721.17
824.868	1794.79
825.05	1907.55
825.232	1881.4
825.413	1941.07
825.595	1919.95
825.777	1850.21
825.958	1903.1
826.14	1886.44
826.321	1935.26
826.503	1866.48
826.685	1942.04
826.866	1929.84
827.048	1930.03
827.229	1849.82
827.411	1805.64
827.592	1782.78
827.773	1745.97
827.955	1730.08
828.136	1745.39
828.318	1708.38
828.499	1743.26
828.68	1688.62
828.862	1731.05
829.043	1743.64
829.224	1705.28
829.406	1695.21
829.587	1679.51
829.768	1675.45
829.949	1714
830.131	1725.43
830.312	1775.42
830.493	1735.89
830.674	1754.88
830.855	1710.51
831.036	1714.39
831.218	1782.98
831.399	1805.26
831.58	1739.96
831.761	1714
831.942	1749.65
832.123	1720.01
832.304	1681.06
832.485	1701.99
832.666	1730.86
832.847	1766.89
833.028	1718.65
833.209	1713.23
833.389	1689.4
833.57	1656.07
833.751	1673.31
833.932	1740.93
834.113	1729.69
834.294	1691.14
834.475	1788.98
834.655	1779.1
834.836	1771.54
835.017	1760.69
835.198	1734.73
835.378	1738.99
835.559	1818.62
835.74	1771.74
835.92	1756.43
836.101	1735.89
836.281	1792.66
836.462	1777.55
836.643	1824.44
836.823	1866.87
837.004	1813.2
837.184	1869.58
837.365	1824.44
837.545	1847.49
837.726	1788.79
837.906	1848.85
838.087	1820.56
838.267	1807.39
838.448	1766.31
838.628	1826.18
838.808	1811.84
838.989	1855.05
839.169	1755.66
839.349	1815.14
839.53	1850.59
839.71	1825.79
839.89	1818.24
840.07	1881.98
840.251	1795.37
840.431	1837.03
840.611	1829.67
840.791	1809.91
840.971	1830.64
841.151	1821.92
841.332	1785.11
841.512	1838.97
841.692	1739.77
841.872	1813.97
842.052	1779.68
842.232	1825.21
842.412	1766.7
842.592	1751.01
842.772	1796.34
842.952	1807.77
843.132	1778.71
843.312	1779.29
843.492	1730.86
843.672	1800.41
843.851	1737.64
844.031	1743.06
844.211	1748.68
844.391	1722.72
844.571	1774.45
844.751	1761.47
844.93	1738.61
845.11	1748.1
845.29	1746.55
845.47	1783.94
845.649	1762.05
845.829	1786.27
846.009	1749.26
846.188	1780.07
846.368	1751.2
846.547	1725.24
846.727	1758.76
846.907	1683
847.086	1750.62
847.266	1774.84
847.445	1745.19
847.625	1729.5
847.804	1686.68
847.984	1749.46
848.163	1716.52
848.343	1685.52
848.522	1760.11
848.701	1725.63
848.881	1696.56
849.06	1716.71
849.239	1707.99
849.419	1706.64
849.598	1617.51
849.777	1642.51
849.957	1611.9
850.136	1571.21
850.315	1538.27
850.494	1561.72
850.674	1563.65
850.853	1605.89
851.032	1605.7
851.211	1605.7
851.39	1588.26
851.569	1529.36
851.748	1524.71
851.927	1628.75
852.107	1571.21
852.286	1536.53
852.465	1558.81
852.644	1625.46
852.823	1622.75
853.002	1613.25
853.181	1602.21
853.359	1584.58
853.538	1535.75
853.717	1591.94
853.896	1467.75
854.075	1426.67
854.254	1390.44
854.433	1296.86
854.611	1376.3
854.79	1339.1
854.969	1379.79
855.148	1448.37
855.327	1350.34
855.505	1442.75
855.684	1435
855.863	1457.29
856.041	1439.27
856.22	1464.26
856.399	1419.7
856.577	1520.25
856.756	1528.97
856.934	1647.55
857.113	1615.58
857.291	1559.2
857.47	1520.25
857.648	1540.98
857.827	1517.74
858.005	1556.48
858.184	1472.2
858.362	1598.14
858.541	1500.88
858.719	1535.17
858.898	1515.22
859.076	1467.94
859.254	1577.99
859.433	1485.96
859.611	1495.65
859.789	1472.2
859.967	1524.13
860.146	1527.03
860.324	1462.9
860.502	1458.64
860.68	1431.91
860.859	1466
861.037	1478.79
861.215	1472.59
861.393	1468.14
861.571	1465.81
861.749	1456.7
861.927	1479.76
862.105	1468.14
862.283	1419.31
862.461	1419.31
862.639	1404.97
862.817	1439.65
862.995	1455.93
863.173	1439.07
863.351	1460.77
863.529	1461.16
863.707	1482.28
863.885	1432.87
864.063	1362.16
864.241	1382.69
864.418	1497.78
864.596	1428.61
864.774	1369.13
864.952	1396.26
865.129	1441.59
865.307	1394.12
865.485	1309.65
865.663	1408.66
865.84	1316.43
866.018	1339.68
866.196	1211.61
866.373	1214.52
866.551	1211.81
866.728	1155.43
866.906	1195.73
867.084	1246.3
867.261	1268.19
867.439	1253.46
867.616	1295.31
867.794	1255.21
867.971	1321.66
868.149	1291.24
868.326	1348.4
868.503	1321.66
868.681	1321.08
868.858	1281.56
869.035	1279.43
869.213	1322.05
869.39	1254.63
869.567	1367.58
869.745	1269.35
869.922	1332.9
870.099	1307.33
870.276	1324.96
870.454	1302.09
870.631	1312.56
870.808	1260.83
870.985	1310.62
871.162	1400.13
871.339	1324.96
871.517	1252.3
871.694	1272.45
871.871	1274.19
872.048	1298.41
872.225	1274
872.402	1278.07
872.579	1226.15
872.756	1307.33
872.933	1232.73
873.11	1255.01
873.287	1279.43
873.463	1233.7
873.64	1239.32
873.817	1256.37
873.994	1243
874.171	1212
874.348	1255.4
874.524	1205.8
874.701	1219.36
874.878	1182.75
875.055	1236.22
875.231	1177.9
875.408	1235.64
875.585	1139.54
875.762	1200.96
875.938	1192.82
876.115	1179.26
876.291	1130.43
876.468	1147.68
876.645	1162.6
876.821	1155.62
876.998	1153.88
877.174	1158.33
877.351	1155.43
877.527	1154.27
877.704	1150
877.88	1173.06
878.057	1151.94
878.233	1194.18
878.409	1137.02
878.586	1156.4
878.762	1138.38
878.938	1153.1
879.115	1076.96
879.291	1157.75
879.467	1076.77
879.644	1109.7
879.82	1141.48
879.996	1072.12
880.172	1082.39
880.349	1105.05
880.525	1131.98
880.701	1091.3
880.877	1035.11
881.053	1119.2
881.229	1101.57
881.405	1143.22
881.581	1091.1
881.757	1058.94
881.933	1070.76
882.109	1154.07
882.285	1103.31
882.461	1073.28
882.637	1120.75
882.813	1058.17
882.989	1119.2
883.165	1121.91
883.341	1071.92
883.517	1158.14
883.693	1121.13
883.869	1118.42
884.044	1070.95
884.22	1125.78
884.396	1134.89
884.572	1119.2
884.747	1150.39
884.923	1101.76
885.099	1117.45
885.275	1130.05
885.45	1038.4
885.626	1065.34
885.801	1072.31
885.977	1073.28
886.153	1031.04
886.328	1105.05
886.504	1054.49
886.679	1075.99
886.855	1021.35
887.03	1106.41
887.206	1126.37
887.381	1114.35
887.557	1098.27
887.732	1090.52
887.908	1106.8
888.083	1129.66
888.258	1103.89
888.434	1048.09
888.609	1067.85
888.784	1110.87
888.96	1084.9
889.135	1081.03
889.31	1052.74
889.485	1089.17
889.661	1057.59
889.836	1110.28
890.011	1086.07
890.186	1085.68
890.361	1068.63
890.537	1080.45
890.712	1090.52
890.887	1107.96
891.062	1079.29
891.237	1120.36
891.412	1043.25
891.587	1058.94
891.762	1106.22
891.937	1114.16
892.112	1036.85
892.287	1072.5
892.462	1038.79
892.637	1033.56
892.812	989.77
892.987	989.77
893.161	980.09
893.336	982.41
893.511	977.57
893.686	998.88
893.861	959.55
894.035	978.73
894.21	990.36
894.385	953.54
894.56	990.74
894.734	912.47
894.909	900.65
895.084	880.11
895.258	894.06
895.433	886.51
895.608	874.49
895.782	800.68
895.957	851.83
896.131	845.24
896.306	788.86
896.48	812.11
896.655	755.53
896.829	723.76
897.004	735.58
897.178	723.95
897.353	706.32
897.527	762.9
897.701	711.94
897.876	669.7
898.05	776.26
898.224	755.53
898.399	756.11
898.573	731.7
898.747	606.74
898.921	668.73
899.096	598.6
899.27	593.95
899.444	628.44
899.618	628.63
899.792	660.98
899.967	658.66
900.141	690.43
900.315	617.2
900.489	625.72
900.663	643.74
900.837	601.31
901.011	593.95
901.185	683.27
901.359	645.49
901.533	669.7
901.707	615.26
901.881	640.06
902.055	590.85
902.229	627.85
902.403	653.43
902.576	598.02
902.75	647.04
902.924	766.38
903.098	716.59
903.272	750.3
903.446	759.41
903.619	758.83
903.793	795.25
903.967	755.53
904.14	851.44
904.314	810.75
904.488	796.22
904.661	821.21
904.835	812.3
905.009	819.66
905.182	846.4
905.356	815.21
905.529	798.16
905.703	757.28
905.876	758.25
906.05	730.35
906.223	729.96
906.397	688.5
906.57	678.42
906.744	648.2
906.917	626.69
907.09	650.91
907.264	621.65
907.437	599.95
907.61	575.15
907.784	607.32
907.957	600.34
908.13	581.35
908.304	587.17
908.477	567.4
908.65	570.12
908.823	549.39
908.996	599.18
909.17	548.22
909.343	571.47
909.516	539.51
909.689	553.07
909.862	555.39
910.035	541.25
910.208	548.03
910.381	534.47
910.554	639.48
910.727	580.39
910.9	529.04
911.073	547.84
911.246	603.83
911.419	595.89
911.592	599.95
911.765	506.18
911.938	532.53
912.11	561.98
912.283	565.08
912.456	585.23
912.629	569.92
912.802	532.14
912.974	495.91
913.147	443.41
913.32	403.49
913.493	432.36
913.665	504.82
913.838	452.13
914.01	470.14
914.183	492.23
914.356	508.7
914.528	537.76
914.701	567.79
914.873	538.92
915.046	476.15
915.218	472.66
915.391	418.8
915.563	399.23
915.736	487.39
915.908	493.39
916.081	466.66
916.253	463.94
916.425	483.12
916.598	479.83
916.77	466.08
916.942	454.84
917.115	411.24
917.287	463.17
917.459	446.31
917.632	437.4
917.804	385.86
917.976	464.53
918.148	454.64
918.32	478.09
918.493	509.28
918.665	524.01
918.837	502.31
919.009	549.77
919.181	549.19
919.353	514.51
919.525	498.82
919.697	514.12
919.869	502.69
920.041	561.4
920.213	604.02
920.385	523.23
920.557	510.64
920.729	546.87
920.901	509.28
921.073	513.35
921.244	479.44
921.416	543.19
921.588	531.56
921.76	495.33
921.932	544.35
922.103	507.34
922.275	501.34
922.447	533.31
922.619	472.66
922.79	494.36
922.962	472.47
923.134	512.96
923.305	448.25
923.477	425
923.648	430.81
923.82	465.3
923.991	379.47
924.163	382.18
924.335	443.79
924.506	410.66
924.677	478.67
924.849	417.83
925.02	478.67
925.192	471.5
925.363	449.61
925.535	446.89
925.706	432.94
925.877	476.54
926.049	402.91
926.22	457.16
926.391	449.8
926.562	480.22
926.734	408.92
926.905	470.14
927.076	382.57
927.247	398.26
927.419	345.37
927.59	369.78
927.761	382.38
927.932	341.69
928.103	348.28
928.274	295.97
928.445	302.75
928.616	341.88
928.787	286.67
928.958	356.8
929.129	322.9
929.3	300.81
929.471	256.83
929.642	217.3
929.813	197.93
929.984	304.88
930.155	200.06
930.326	261.09
930.496	217.3
930.667	151.04
930.838	211.3
931.009	149.1
931.18	176.42
931.35	186.5
931.521	202
931.692	131.28
931.863	82.07
932.033	128.76
932.204	141.74
932.374	140.19
932.545	89.24
932.716	149.88
932.886	144.65
933.057	71.61
933.227	84.97
933.398	165.38
933.568	82.07
933.739	27.63
933.909	46.42
934.08	102.8
934.25	31.11
934.421	28.98
934.591	68.51
934.761	55.52
934.932	49.13
935.102	73.35
935.272	39.83
935.443	43.71
935.613	42.16
935.783	57.85
935.953	27.24
936.123	182.62
936.294	20.65
936.464	24.91
936.634	24.72
936.804	29.37
936.974	-16.74
937.144	56.11
937.314	49.71
937.484	35.38
937.655	28.4
937.825	85.17
937.995	45.84
938.165	82.26
938.334	64.24
938.504	50.87
938.674	74.9
938.844	65.79
939.014	151.43
939.184	138.84
939.354	177.78
939.524	155.3
939.694	80.13
939.863	124.69
940.033	153.95
940.203	157.44
940.373	151.43
940.542	117.33
940.712	75.48
940.882	143.49
941.051	159.95
941.221	127.79
941.391	158.02
941.56	106.48
941.73	86.52
941.899	193.09
942.069	115.97
942.238	147.36
942.408	111.32
942.577	117.14
942.747	104.16
942.916	43.9
943.086	80.71
943.255	139.61
943.425	104.16
943.594	112.49
943.763	17.36
943.933	42.16
944.102	30.34
944.271	85.17
944.441	79.36
944.61	70.44
944.779	90.4
944.948	155.89
945.117	21.62
945.287	71.8
945.456	2.24
945.625	30.14
945.794	85.17
945.963	47.39
946.132	136.12
946.301	43.51
946.47	110.74
946.639	21.81
946.808	52.04
946.977	87.11
947.146	115.78
947.315	64.05
947.484	116.94
947.653	65.21
947.822	26.46
947.991	56.69
948.16	136.12
948.329	110.36
948.498	83.23
948.666	85.17
948.835	125.66
949.004	60.95
949.173	54.17
949.341	106.67
949.51	63.86
949.679	113.46
949.847	132.44
950.016	135.15
950.185	129.73
950.353	89.62
950.522	76.06
950.69	117.91
950.859	76.26
951.028	131.86
951.196	81.87
951.365	63.47
951.533	90.01
951.701	91.76
951.87	105.9
952.038	39.44
952.207	60.76
952.375	139.8
952.543	78.19
952.712	102.61
952.88	72.96
953.048	149.3
953.217	80.52
953.385	95.82
953.553	119.27
953.721	53.59
953.89	79.55
954.058	58.04
954.226	66.18
954.394	92.92
954.562	24.33
954.73	88.46
954.898	57.46
955.067	93.11
955.235	42.35
955.403	110.74
955.571	142.52
955.739	120.82
955.907	41.19
956.075	74.32
956.243	58.62
956.41	109.39
956.578	26.66
956.746	68.51
956.914	81.49
957.082	102.8
957.25	121.21
957.418	76.64
957.585	119.85
957.753	152.4
957.921	67.34
958.089	79.36
958.256	109.39
958.424	106.87
958.592	92.53
958.759	92.92
958.927	105.9
959.095	72.77
959.262	92.92
959.43	82.84
959.597	61.14
959.765	76.45
959.932	56.11
960.1	117.14
960.267	87.3
960.435	82.07
960.602	116.36
960.77	77.42
960.937	65.99
961.104	95.24
961.272	50.49
961.439	88.27
961.606	107.06
961.774	106.87
961.941	82.65
962.108	87.3
962.275	108.22
962.443	143.29
962.61	120.43
962.777	153.56
962.944	112.1
963.111	124.69
963.278	126.05
963.446	101.44
963.613	100.47
963.78	133.99
963.947	130.31
964.114	115.59
964.281	165.96
964.448	154.14
964.615	77.03
964.782	109.58
964.949	132.44
965.116	134.38
965.282	168.09
965.449	89.43
965.616	95.24
965.783	157.05
965.95	117.33
966.117	67.73
966.283	113.46
966.45	104.35
966.617	120.82
966.784	139.61
966.95	159.37
967.117	144.45
967.284	87.88
967.45	98.73
967.617	158.4
967.784	128.37
967.95	173.9
968.117	140.58
968.283	177
968.45	228.93
968.616	157.05
968.783	170.22
968.949	141.16
969.116	177.59
969.282	129.54
969.449	155.3
969.615	148.14
969.781	88.46
969.948	163.44
970.114	104.93
970.28	194.64
970.447	139.03
970.613	196.19
970.779	104.74
970.945	170.8
971.112	139.03
971.278	145.04
971.444	165.38
971.61	161.31
971.776	115.2
971.942	167.7
972.108	146.59
972.275	126.24
972.441	139.03
972.607	182.82
972.773	124.5
972.939	129.15
973.105	121.59
973.271	124.89
973.437	131.86
973.602	92.72
973.768	147.17
973.934	109.77
974.1	153.95
974.266	85.94
974.432	127.6
974.598	162.47
974.763	145.62
974.929	114.81
975.095	173.32
975.261	109.97
975.426	102.8
975.592	100.09
975.758	186.11
975.923	80.13
976.089	94.66
976.255	157.63
976.42	138.64
976.586	109.58
976.751	120.62
976.917	208.97
977.082	133.8
977.248	74.32
977.413	46.81
977.579	114.81
977.744	139.22
977.91	79.55
978.075	126.05
978.24	140
978.406	92.34
978.571	110.55
978.736	101.64
978.902	146.97
979.067	51.26
979.232	63.27
979.397	116.17
979.563	152.59
979.728	93.5
979.893	103.77
980.058	109.77
980.223	128.95
980.388	123.92
980.554	119.66
980.719	110.74
980.884	97.18
981.049	157.63
981.214	99.31
981.379	112.68
981.544	97.18
981.709	111.71
981.874	79.55
982.039	102.8
982.204	135.74
982.368	100.47
982.533	102.41
982.698	132.64
982.863	148.91
983.028	101.44
983.193	118.11
983.357	117.14
983.522	110.94
983.687	97.18
983.852	91.76
984.016	100.47
984.181	142.9
984.346	146.59
984.51	146.97
984.675	135.74
984.839	133.22
985.004	128.76
985.168	136.12
985.333	114.81
985.498	111.91
985.662	132.83
985.827	129.92
985.991	132.25
986.155	89.24
986.32	141.94
986.484	136.51
986.649	140.58
986.813	53.78
986.977	126.05
987.142	155.69
987.306	64.05
987.47	106.48
987.634	120.62
987.799	110.94
987.963	130.12
988.127	128.37
988.291	168.87
988.455	98.73
988.62	100.09
988.784	134.96
988.948	139.8
989.112	88.27
989.276	123.53
989.44	117.52
989.604	100.67
989.768	108.42
989.932	178.36
990.096	102.41
990.26	69.67
990.424	56.88
990.588	96.99
990.752	162.47
990.915	153.37
991.079	82.46
991.243	94.86
991.407	120.62
991.571	104.35
991.734	117.91
991.898	137.48
992.062	171
992.226	124.11
992.389	85.94
992.553	73.74
992.717	76.64
992.88	99.12
993.044	96.41
993.207	78
993.371	135.74
993.535	108.22
993.698	91.37
993.862	128.76
994.025	128.95
994.189	117.14
994.352	115.39
994.515	115.59
994.679	133.6
994.842	88.27
995.006	135.93
995.169	92.92
995.332	70.44
995.496	124.3
995.659	57.07
995.822	96.6
995.985	92.72
996.149	128.37
996.312	76.64
996.475	140.39
996.638	89.04
996.801	143.29
996.964	153.75
997.128	71.22
997.291	97.57
997.454	95.82
997.617	64.24
997.78	130.12
997.943	102.99
998.106	103.77
998.269	54.56
998.432	93.89
998.595	76.26
998.758	44.29
998.92	54.75
999.083	49.32
999.246	79.36
999.409	26.27
999.572	20.84
999.735	76.84
999.897	107.64
1000.06	77.61
1000.223	50.29
1000.386	103.19
1000.548	88.66
1000.711	102.41
1000.874	79.16
1001.036	50.29
1001.199	121.01
1001.361	40.8
1001.524	92.53
1001.687	127.6
1001.849	70.25
1002.012	79.36
1002.174	81.87
1002.337	111.13
1002.499	93.5
1002.661	90.59
1002.824	33.63
1002.986	50.68
1003.149	82.07
1003.311	28.59
1003.473	112.49
1003.636	65.41
1003.798	87.11
1003.96	80.13
1004.123	40.22
1004.285	46.81
1004.447	72.96
1004.609	86.14
1004.771	121.4
1004.933	32.66
1005.096	47.77
1005.258	-6.47
1005.42	51.26
1005.582	112.1
1005.744	76.06
1005.906	11.93
1006.068	80.91
1006.23	56.49
1006.392	10.58
1006.554	32.08
1006.716	91.95
1006.878	82.26
1007.04	18.52
1007.202	41.96
1007.363	82.26
1007.525	54.94
1007.687	73.35
1007.849	105.51
1008.011	36.73
1008.172	32.08
1008.334	54.94
1008.496	60.56
1008.658	-0.27
1008.819	56.3
1008.981	16.78
1009.143	36.54
1009.304	43.12
1009.466	67.34
1009.627	102.61
1009.789	155.3
1009.95	66.96
1010.112	21.04
1010.273	71.61
1010.435	36.15
1010.596	45.06
1010.758	43.9
1010.919	43.9
1011.081	18.71
1011.242	53.97
1011.403	80.32
1011.565	39.64
1011.726	54.94
1011.887	6.89
1012.049	42.54
1012.21	87.88
1012.371	112.68
1012.532	-8.02
1012.693	57.07
1012.855	7.48
1013.016	54.56
1013.177	82.07
1013.338	54.94
1013.499	121.01
1013.66	63.08
1013.821	62.89
1013.982	66.57
1014.143	80.32
1014.304	24.33
1014.465	68.31
1014.626	78.77
1014.787	20.65
1014.948	126.82
1015.109	-27.01
1015.27	92.92
1015.431	34.79
1015.592	18.91
1015.752	85.36
1015.913	81.87
1016.074	57.66
1016.235	41.77
1016.395	61.53
1016.556	25.88
1016.717	42.54
1016.877	89.43
1017.038	29.37
1017.199	47.77
1017.359	46.03
1017.52	52.23
1017.681	28.59
1017.841	39.83
1018.002	42.54
1018.162	36.54
1018.323	73.93
1018.483	49.71
1018.644	26.85
1018.804	20.84
1018.964	7.67
1019.125	0.69
1019.285	54.94
1019.446	-3.57
1019.606	7.09
1019.766	-2.41
1019.926	30.92
1020.087	71.41
1020.247	9.41
1020.407	65.6
1020.567	79.55
1020.728	28.21
1020.888	20.65
1021.048	25.3
1021.208	-5.12
1021.368	26.08
1021.528	69.47
1021.688	48.74
1021.848	63.27
1022.008	36.73
1022.168	27.63
1022.328	28.79
1022.488	47.19
1022.648	14.64
1022.808	32.66
1022.968	40.8
1023.128	19.68
1023.288	4.76
1023.448	43.51
1023.608	65.99
1023.767	51.07
1023.927	21.23
1024.087	-11.9
1024.247	16.97
1024.406	1.66
1024.566	17.16
1024.726	-3.76
1024.885	36.92
1025.045	58.24
1025.205	24.14
1025.364	38.47
1025.524	56.49
1025.683	47.19
1025.843	22.59
1026.003	26.08
1026.162	67.34
1026.321	49.32
1026.481	37.51
1026.64	41.19
1026.8	48.94
1026.959	22.2
1027.119	41.38
1027.278	16.19
1027.437	13.87
1027.597	24.91
1027.756	42.74
1027.915	44.48
1028.074	46.22
1028.234	28.59
1028.393	37.31
1028.552	21.04
1028.711	-28.56
1028.87	70.64
1029.03	-11.32
1029.189	38.67
1029.348	-10.74
1029.507	2.63
1029.666	16.78
1029.825	-2.6
1029.984	-5.89
1030.143	52.23
1030.302	11.35
1030.461	-47.74
1030.62	0.31
1030.779	23.94
1030.938	1.47
1031.097	-6.67
1031.255	53.39
1031.414	79.94
1031.573	63.66
1031.732	-10.54
1031.891	13.09
1032.049	46.61
1032.208	27.82
1032.367	2.05
1032.525	-15.97
1032.684	16.19
1032.843	37.31
1033.001	-21.2
1033.16	148.33
1033.319	65.99
1033.477	42.35
1033.636	10.77
1033.794	0.89
1033.953	57.85
1034.111	29.56
1034.27	-5.12
1034.428	59.4
1034.587	14.84
1034.745	38.09
1034.903	20.46
1035.062	60.76
1035.22	-20.42
1035.378	58.43
1035.537	-1.44
1035.695	26.85
1035.853	38.28
1036.011	28.98
1036.17	50.87
1036.328	-44.45
1036.486	35.96
1036.644	12.51
1036.802	-64.99
1036.96	25.69
1037.119	-17.32
1037.277	1.66
1037.435	-48.71
1037.593	-25.27
1037.751	19.68
1037.909	45.45
1038.067	45.45
